TITLE,ACE2_seo_0.8uM
DATA TYPE,
ORIGIN,JASCO
OWNER,
DATE,24/04/08
TIME,17:36:09
SPECTROMETER/DATA SYSTEM,
LOCALE,1033
RESOLUTION,
DELTAX,-0.1
XUNITS,NANOMETERS
YUNITS,CD [mdeg]
Y2UNITS,HT [V]
FIRSTX,  350.0000
LASTX,  190.0000
NPOINTS,    1601
FIRSTY,    -0.53748
MAXY,     5.83512
MINY,    -2.41013
XYDATA
350.0000,-0.537477,482.867
349.9000,-0.685642,482.237
349.8000,-0.662818,481.314
349.7000,-0.894067,480.374
349.6000,-0.714807,479.715
349.5000,-0.62757,479.142
349.4000,-0.600457,478.261
349.3000,-0.66672,477.627
349.2000,-0.648922,477.092
349.1000,-0.481295,476.245
349.0000,-0.492574,475.618
348.9000,-0.363636,475.078
348.8000,-0.324336,474.243
348.7000,-0.296828,473.396
348.6000,-0.169294,472.793
348.5000,-0.039918,472.27
348.4000,0.160875,471.412
348.3000,0.0234735,470.766
348.2000,-0.0445337,470.202
348.1000,-0.0615775,469.34
348.0000,0.0111776,468.685
347.9000,0.261473,468.115
347.8000,0.428919,467.26
347.7000,0.246606,466.383
347.6000,0.188885,465.758
347.5000,0.102502,465.241
347.4000,0.166428,464.441
347.3000,0.16195,463.844
347.2000,0.28891,463.342
347.1000,0.323578,462.594
347.0000,0.22752,462.046
346.9000,0.253676,461.579
346.8000,0.305265,460.843
346.7000,0.36777,460.096
346.6000,0.227699,459.537
346.5000,0.0595988,458.775
346.4000,-0.148843,457.994
346.3000,-0.362957,457.383
346.2000,-0.600908,456.586
346.1000,-0.749125,455.779
346.0000,-0.984411,455.169
345.9000,-1.07379,454.638
345.8000,-1.01214,453.829
345.7000,-0.863125,453.242
345.6000,-0.795007,452.748
345.5000,-0.658828,452.046
345.4000,-0.504701,451.539
345.3000,-0.206376,451.121
345.2000,-0.00340916,450.438
345.1000,0.0326822,449.741
345.0000,-0.153064,449.233
344.9000,-0.247099,448.584
344.8000,-0.336498,447.918
344.7000,-0.481646,447.396
344.6000,-0.677508,446.701
344.5000,-0.905551,445.989
344.4000,-0.942017,445.459
344.3000,-0.89646,444.782
344.2000,-0.886093,444.095
344.1000,-0.773938,443.58
344.0000,-0.69885,442.912
343.9000,-0.524899,442.245
343.8000,-0.311503,441.767
343.7000,-0.139302,441.362
343.6000,-0.0876069,440.736
343.5000,0.0195853,440.286
343.4000,0.353992,439.916
343.3000,0.46684,439.281
343.2000,0.382666,438.81
343.1000,0.452545,438.409
343.0000,0.441335,437.826
342.9000,0.339686,437.224
342.8000,0.333284,436.772
342.7000,0.118526,436.144
342.6000,-0.0917237,435.502
342.5000,-0.385544,435.033
342.4000,-0.463658,434.462
342.3000,-0.40232,433.89
342.2000,-0.44366,433.437
342.1000,-0.516515,432.843
342.0000,-0.636392,432.249
341.9000,-0.757048,431.837
341.8000,-0.759699,431.295
341.7000,-0.709563,430.745
341.6000,-0.46112,430.348
341.5000,-0.445073,429.826
341.4000,-0.581033,429.289
341.3000,-0.723925,428.887
341.2000,-0.655336,428.336
341.1000,-0.561477,427.767
341.0000,-0.416833,427.345
340.9000,-0.304662,426.795
340.8000,-0.334379,426.23
340.7000,-0.211414,425.788
340.6000,-0.0759136,425.245
340.5000,0.0819938,424.695
340.4000,0.276826,424.3
340.3000,0.338007,423.773
340.2000,0.395884,423.239
340.1000,0.324283,422.851
340.0000,0.217491,422.358
339.9000,-0.00768601,421.863
339.8000,-0.329949,421.482
339.7000,-0.558453,421.007
339.6000,-0.935654,420.523
339.5000,-1.14654,420.187
339.4000,-1.37233,419.727
339.3000,-1.5619,419.238
339.2000,-1.56562,418.725
339.1000,-1.50402,418.266
339.0000,-1.37997,417.792
338.9000,-1.13954,417.248
338.8000,-0.896285,416.746
338.7000,-0.730897,416.235
338.6000,-0.605174,415.688
338.5000,-0.546677,415.209
338.4000,-0.426211,414.854
338.3000,-0.430647,414.402
338.2000,-0.309421,413.952
338.1000,-0.291482,413.638
338.0000,-0.200304,413.228
337.9000,-0.19379,412.805
337.8000,-0.0906824,412.511
337.7000,0.0312813,412.122
337.6000,-0.018515,411.712
337.5000,-0.0321033,411.397
337.4000,-0.123046,410.99
337.3000,-0.242877,410.566
337.2000,-0.307429,410.09
337.1000,-0.260635,409.672
337.0000,-0.165649,409.252
336.9000,-0.106788,408.793
336.8000,-0.126088,408.39
336.7000,-0.189961,407.982
336.6000,-0.201262,407.537
336.5000,-0.0729958,407.139
336.4000,0.066307,406.862
336.3000,0.098431,406.467
336.2000,0.014045,406.054
336.1000,-0.154041,405.744
336.0000,-0.234253,405.368
335.9000,-0.126126,404.98
335.8000,-0.108146,404.54
335.7000,-0.205455,404.138
335.6000,-0.35977,403.73
335.5000,-0.36257,403.314
335.4000,-0.371029,402.957
335.3000,-0.341921,402.602
335.2000,-0.185214,402.222
335.1000,-0.0299489,401.885
335.0000,0.0540499,401.666
334.9000,0.151822,401.354
334.8000,0.133313,401.02
334.7000,0.106982,400.659
334.6000,0.0556844,400.339
334.5000,0.0654167,400.013
334.4000,0.014772,399.621
334.3000,-0.102701,399.256
334.2000,-0.224048,398.878
334.1000,-0.399919,398.457
334.0000,-0.447836,398.091
333.9000,-0.563824,397.819
333.8000,-0.564872,397.484
333.7000,-0.649702,397.138
333.6000,-0.793167,396.76
333.5000,-0.825468,396.438
333.4000,-0.767191,396.114
333.3000,-0.716231,395.778
333.2000,-0.66833,395.489
333.1000,-0.594231,395.195
333.0000,-0.611,394.866
332.9000,-0.49553,394.572
332.8000,-0.305313,394.241
332.7000,-0.211183,393.944
332.6000,-0.195479,393.638
332.5000,-0.158033,393.298
332.4000,-0.0470993,393.003
332.3000,0.131967,392.707
332.2000,0.315997,392.368
332.1000,0.337241,392.053
332.0000,0.286501,391.716
331.9000,0.169064,391.432
331.8000,0.151546,391.15
331.7000,0.0916767,390.827
331.6000,-0.0876129,390.528
331.5000,-0.220882,390.111
331.4000,-0.317223,389.779
331.3000,-0.329129,389.489
331.2000,-0.290512,389.171
331.1000,-0.284284,388.883
331.0000,-0.312162,388.587
330.9000,-0.416656,388.28
330.8000,-0.387472,388.015
330.7000,-0.334454,387.722
330.6000,-0.392469,387.463
330.5000,-0.440357,387.204
330.4000,-0.573368,386.912
330.3000,-0.650483,386.658
330.2000,-0.594287,386.3
330.1000,-0.478811,386.011
330.0000,-0.282886,385.755
329.9000,-0.220851,385.471
329.8000,-0.248747,385.216
329.7000,-0.25797,384.875
329.6000,-0.213118,384.616
329.5000,-0.126814,384.391
329.4000,-0.166779,384.101
329.3000,-0.246658,383.841
329.2000,-0.435429,383.477
329.1000,-0.602745,383.19
329.0000,-0.730794,382.94
328.9000,-0.777204,382.661
328.8000,-0.832608,382.406
328.7000,-0.87458,382.063
328.6000,-0.834868,381.821
328.5000,-0.726934,381.626
328.4000,-0.685992,381.371
328.3000,-0.626458,381.143
328.2000,-0.619643,380.843
328.1000,-0.54718,380.608
328.0000,-0.516512,380.401
327.9000,-0.544844,380.13
327.8000,-0.59778,379.882
327.7000,-0.589434,379.616
327.6000,-0.565563,379.443
327.5000,-0.48517,379.313
327.4000,-0.427796,379.054
327.3000,-0.335561,378.812
327.2000,-0.382064,378.521
327.1000,-0.361046,378.317
327.0000,-0.287855,378.158
326.9000,-0.296778,377.887
326.8000,-0.268359,377.605
326.7000,-0.31979,377.287
326.6000,-0.361049,377.096
326.5000,-0.350142,376.968
326.4000,-0.315926,376.714
326.3000,-0.277765,376.466
326.2000,-0.27755,376.195
326.1000,-0.249166,376.014
326.0000,-0.250821,375.717
325.9000,-0.220412,375.438
325.8000,-0.173905,375.171
325.7000,-0.222914,374.918
325.6000,-0.353628,374.774
325.5000,-0.439802,374.48
325.4000,-0.43481,374.194
325.3000,-0.478056,373.906
325.2000,-0.55948,373.732
325.1000,-0.593526,373.619
325.0000,-0.586245,373.344
324.9000,-0.510009,373.055
324.8000,-0.42419,372.75
324.7000,-0.409065,372.593
324.6000,-0.389793,372.515
324.5000,-0.429086,372.25
324.4000,-0.354754,371.984
324.3000,-0.329785,371.735
324.2000,-0.402673,371.596
324.1000,-0.426588,371.335
324.0000,-0.461358,371.069
323.9000,-0.438209,370.796
323.8000,-0.364807,370.546
323.7000,-0.376359,370.421
323.6000,-0.479103,370.156
323.5000,-0.551283,369.864
323.4000,-0.535365,369.583
323.3000,-0.542055,369.435
323.2000,-0.588033,369.35
323.1000,-0.533137,369.102
323.0000,-0.567658,368.83
322.9000,-0.550636,368.558
322.8000,-0.506266,368.426
322.7000,-0.436056,368.187
322.6000,-0.411271,367.92
322.5000,-0.308317,367.649
322.4000,-0.261803,367.372
322.3000,-0.306552,367.199
322.2000,-0.241099,366.904
322.1000,-0.236102,366.581
322.0000,-0.272701,366.261
321.9000,-0.368335,366.068
321.8000,-0.441469,365.78
321.7000,-0.575649,365.479
321.6000,-0.654438,365.176
321.5000,-0.662125,364.902
321.4000,-0.667908,364.764
321.3000,-0.680734,364.566
321.2000,-0.73715,364.363
321.1000,-0.744539,364.157
321.0000,-0.727445,364.082
320.9000,-0.676588,363.941
320.8000,-0.698404,363.8
320.7000,-0.723313,363.654
320.6000,-0.788168,363.503
320.5000,-0.817721,363.451
320.4000,-0.818663,363.286
320.3000,-0.675496,363.121
320.2000,-0.597794,362.967
320.1000,-0.577193,362.907
320.0000,-0.487735,362.747
319.9000,-0.390132,362.577
319.8000,-0.287949,362.402
319.7000,-0.29222,362.218
319.6000,-0.22492,362.011
319.5000,-0.200856,361.855
319.4000,-0.160892,361.68
319.3000,-0.194221,361.468
319.2000,-0.229234,361.356
319.1000,-0.281122,361.154
319.0000,-0.339915,360.943
318.9000,-0.425895,360.724
318.8000,-0.514017,360.601
318.7000,-0.578963,360.374
318.6000,-0.62384,360.14
318.5000,-0.635246,359.944
318.4000,-0.649483,359.751
318.3000,-0.623214,359.535
318.2000,-0.55793,359.372
318.1000,-0.480363,359.209
318.0000,-0.404047,359.032
317.9000,-0.346821,358.962
317.8000,-0.356421,358.839
317.7000,-0.343245,358.692
317.6000,-0.292896,358.508
317.5000,-0.265342,358.406
317.4000,-0.361189,358.235
317.3000,-0.355304,358.062
317.2000,-0.390044,357.875
317.1000,-0.419827,357.686
317.0000,-0.446684,357.451
316.9000,-0.367408,357.257
316.8000,-0.348139,357.077
316.7000,-0.285487,356.9
316.6000,-0.197198,356.725
316.5000,-0.153196,356.579
316.4000,-0.13643,356.415
316.3000,-0.0743165,356.246
316.2000,-0.00973503,356.086
316.1000,-0.0957598,355.966
316.0000,-0.168162,355.848
315.9000,-0.271658,355.687
315.8000,-0.391416,355.579
315.7000,-0.486392,355.404
315.6000,-0.572564,355.253
315.5000,-0.600235,355.081
315.4000,-0.707126,354.966
315.3000,-0.668441,354.77
315.2000,-0.59759,354.565
315.1000,-0.53803,354.379
315.0000,-0.526537,354.2
314.9000,-0.477246,354.027
314.8000,-0.371748,353.885
314.7000,-0.374182,353.729
314.6000,-0.370033,353.576
314.5000,-0.424214,353.43
314.4000,-0.518532,353.32
314.3000,-0.506925,353.185
314.2000,-0.464035,353.056
314.1000,-0.429008,352.877
314.0000,-0.516843,352.714
313.9000,-0.511731,352.549
313.8000,-0.405535,352.395
313.7000,-0.304426,352.179
313.6000,-0.294373,351.977
313.5000,-0.368681,351.786
313.4000,-0.447258,351.603
313.3000,-0.497881,351.432
313.2000,-0.446028,351.293
313.1000,-0.427699,351.142
313.0000,-0.401893,350.996
312.9000,-0.500076,350.859
312.8000,-0.488987,350.766
312.7000,-0.349987,350.645
312.6000,-0.213438,350.523
312.5000,-0.167433,350.362
312.4000,-0.145897,350.216
312.3000,-0.222343,350.048
312.2000,-0.312244,349.882
312.1000,-0.33242,349.666
312.0000,-0.310243,349.464
311.9000,-0.365164,349.265
311.8000,-0.517397,349.029
311.7000,-0.597996,348.841
311.6000,-0.65273,348.641
311.5000,-0.638924,348.478
311.4000,-0.581524,348.283
311.3000,-0.559981,348.152
311.2000,-0.619511,348.018
311.1000,-0.662459,347.906
311.0000,-0.595863,347.789
310.9000,-0.539805,347.69
310.8000,-0.529417,347.585
310.7000,-0.502264,347.494
310.6000,-0.474335,347.367
310.5000,-0.544117,347.258
310.4000,-0.569931,347.155
310.3000,-0.527412,347.065
310.2000,-0.508992,346.981
310.1000,-0.543256,346.911
310.0000,-0.500717,346.83
309.9000,-0.509753,346.76
309.8000,-0.594741,346.699
309.7000,-0.588905,346.613
309.6000,-0.542945,346.541
309.5000,-0.53657,346.43
309.4000,-0.536017,346.339
309.3000,-0.508417,346.205
309.2000,-0.518875,346.094
309.1000,-0.523209,345.927
309.0000,-0.528479,345.782
308.9000,-0.484456,345.651
308.8000,-0.41887,345.536
308.7000,-0.382728,345.43
308.6000,-0.380957,345.338
308.5000,-0.5133,345.229
308.4000,-0.491782,345.118
308.3000,-0.436718,345.055
308.2000,-0.459714,344.949
308.1000,-0.490645,344.867
308.0000,-0.540222,344.762
307.9000,-0.528409,344.672
307.8000,-0.535683,344.53
307.7000,-0.450356,344.424
307.6000,-0.397288,344.304
307.5000,-0.455929,344.139
307.4000,-0.454566,344.02
307.3000,-0.412949,343.908
307.2000,-0.372376,343.821
307.1000,-0.371,343.691
307.0000,-0.331167,343.602
306.9000,-0.320694,343.513
306.8000,-0.317434,343.456
306.7000,-0.350672,343.391
306.6000,-0.357426,343.305
306.5000,-0.373235,343.228
306.4000,-0.426065,343.103
306.3000,-0.488307,343.015
306.2000,-0.520171,342.898
306.1000,-0.500378,342.795
306.0000,-0.476151,342.652
305.9000,-0.500837,342.548
305.8000,-0.449947,342.471
305.7000,-0.471923,342.356
305.6000,-0.43569,342.276
305.5000,-0.304025,342.198
305.4000,-0.290919,342.145
305.3000,-0.316197,342.051
305.2000,-0.424415,341.982
305.1000,-0.43989,341.899
305.0000,-0.503573,341.774
304.9000,-0.563517,341.693
304.8000,-0.572332,341.593
304.7000,-0.605836,341.501
304.6000,-0.623713,341.375
304.5000,-0.606581,341.273
304.4000,-0.56474,341.188
304.3000,-0.567812,341.077
304.2000,-0.545282,341.015
304.1000,-0.428239,340.957
304.0000,-0.363696,340.92
303.9000,-0.375297,340.833
303.8000,-0.422884,340.749
303.7000,-0.493656,340.693
303.6000,-0.542503,340.592
303.5000,-0.482484,340.526
303.4000,-0.495273,340.437
303.3000,-0.582523,340.32
303.2000,-0.677624,340.208
303.1000,-0.631042,340.121
303.0000,-0.615984,340.071
302.9000,-0.638641,339.982
302.8000,-0.599726,339.907
302.7000,-0.675698,339.846
302.6000,-0.620674,339.762
302.5000,-0.510409,339.717
302.4000,-0.431957,339.66
302.3000,-0.470664,339.564
302.2000,-0.577558,339.472
302.1000,-0.61164,339.385
302.0000,-0.636472,339.331
301.9000,-0.616253,339.249
301.8000,-0.647297,339.175
301.7000,-0.707132,339.114
301.6000,-0.783655,339.026
301.5000,-0.892983,338.98
301.4000,-0.917033,338.927
301.3000,-0.874536,338.85
301.2000,-0.867085,338.778
301.1000,-0.891659,338.714
301.0000,-0.878311,338.681
300.9000,-0.894115,338.609
300.8000,-0.860619,338.538
300.7000,-0.872171,338.478
300.6000,-0.790669,338.404
300.5000,-0.75262,338.344
300.4000,-0.687481,338.3
300.3000,-0.656689,338.227
300.2000,-0.60197,338.158
300.1000,-0.539457,338.102
300.0000,-0.518908,338.038
299.9000,-0.481249,337.986
299.8000,-0.43145,337.935
299.7000,-0.485125,337.871
299.6000,-0.495458,337.818
299.5000,-0.531485,337.756
299.4000,-0.579178,337.707
299.3000,-0.65248,337.64
299.2000,-0.654767,337.589
299.1000,-0.704682,337.549
299.0000,-0.672929,337.488
298.9000,-0.663831,337.439
298.8000,-0.694092,337.398
298.7000,-0.766903,337.339
298.6000,-0.78533,337.295
298.5000,-0.749966,337.244
298.4000,-0.741634,337.182
298.3000,-0.688091,337.129
298.2000,-0.704054,337.067
298.1000,-0.664411,337.007
298.0000,-0.532724,336.958
297.9000,-0.475867,336.91
297.8000,-0.435418,336.841
297.7000,-0.447605,336.786
297.6000,-0.482893,336.744
297.5000,-0.49625,336.681
297.4000,-0.502277,336.637
297.3000,-0.507527,336.598
297.2000,-0.589194,336.532
297.1000,-0.648187,336.482
297.0000,-0.647776,336.437
296.9000,-0.633521,336.373
296.8000,-0.582427,336.324
296.7000,-0.592364,336.281
296.6000,-0.622338,336.248
296.5000,-0.632388,336.205
296.4000,-0.661048,336.167
296.3000,-0.644109,336.141
296.2000,-0.579081,336.103
296.1000,-0.544418,336.07
296.0000,-0.535726,336.044
295.9000,-0.494272,336.001
295.8000,-0.492806,335.936
295.7000,-0.465691,335.893
295.6000,-0.490851,335.848
295.5000,-0.543813,335.783
295.4000,-0.602995,335.711
295.3000,-0.633084,335.668
295.2000,-0.678204,335.61
295.1000,-0.759647,335.542
295.0000,-0.794634,335.506
294.9000,-0.86288,335.456
294.8000,-0.866096,335.388
294.7000,-0.807557,335.352
294.6000,-0.763368,335.319
294.5000,-0.781397,335.268
294.4000,-0.772251,335.231
294.3000,-0.701033,335.207
294.2000,-0.638346,335.16
294.1000,-0.611269,335.126
294.0000,-0.561192,335.105
293.9000,-0.562976,335.06
293.8000,-0.627094,335.028
293.7000,-0.619794,335.005
293.6000,-0.632395,334.955
293.5000,-0.697865,334.892
293.4000,-0.699486,334.862
293.3000,-0.684412,334.816
293.2000,-0.69877,334.761
293.1000,-0.716064,334.737
293.0000,-0.720699,334.691
292.9000,-0.693107,334.64
292.8000,-0.7241,334.616
292.7000,-0.686827,334.593
292.6000,-0.707037,334.554
292.5000,-0.712701,334.501
292.4000,-0.730833,334.471
292.3000,-0.697424,334.425
292.2000,-0.630183,334.378
292.1000,-0.659296,334.353
292.0000,-0.683375,334.31
291.9000,-0.747586,334.253
291.8000,-0.728205,334.207
291.7000,-0.700599,334.19
291.6000,-0.643599,334.15
291.5000,-0.63124,334.107
291.4000,-0.697218,334.086
291.3000,-0.758354,334.033
291.2000,-0.769788,333.968
291.1000,-0.77568,333.904
291.0000,-0.832067,333.857
290.9000,-0.856778,333.787
290.8000,-0.893784,333.695
290.7000,-0.869417,333.597
290.6000,-0.803252,333.488
290.5000,-0.695255,333.36
290.4000,-0.617801,333.228
290.3000,-0.588578,333.112
290.2000,-0.550088,332.971
290.1000,-0.532007,332.819
290.0000,-0.545283,332.681
289.9000,-0.638572,332.584
289.8000,-0.736478,332.494
289.7000,-0.853496,332.429
289.6000,-0.906838,332.401
289.5000,-0.881902,332.409
289.4000,-0.833227,332.449
289.3000,-0.819154,332.518
289.2000,-0.806759,332.608
289.1000,-0.7249,332.719
289.0000,-0.607997,332.824
288.9000,-0.525099,332.927
288.8000,-0.473192,333.022
288.7000,-0.454202,333.107
288.6000,-0.481706,333.168
288.5000,-0.496585,333.214
288.4000,-0.497719,333.242
288.3000,-0.522413,333.257
288.2000,-0.627578,333.252
288.1000,-0.645985,333.243
288.0000,-0.555779,333.225
287.9000,-0.58585,333.191
287.8000,-0.571129,333.172
287.7000,-0.521553,333.146
287.6000,-0.503712,333.123
287.5000,-0.472842,333.09
287.4000,-0.431361,333.075
287.3000,-0.439492,333.06
287.2000,-0.528723,333.041
287.1000,-0.575003,333.024
287.0000,-0.530427,332.985
286.9000,-0.517128,332.962
286.8000,-0.506866,332.948
286.7000,-0.494615,332.931
286.6000,-0.583096,332.899
286.5000,-0.590236,332.887
286.4000,-0.502214,332.879
286.3000,-0.397313,332.879
286.2000,-0.320667,332.876
286.1000,-0.318035,332.866
286.0000,-0.357644,332.864
285.9000,-0.390865,332.855
285.8000,-0.402541,332.852
285.7000,-0.414518,332.823
285.6000,-0.493087,332.795
285.5000,-0.67023,332.787
285.4000,-0.827503,332.78
285.3000,-0.869647,332.783
285.2000,-0.88857,332.759
285.1000,-0.944541,332.745
285.0000,-0.929277,332.754
284.9000,-0.901761,332.755
284.8000,-0.863348,332.759
284.7000,-0.776733,332.739
284.6000,-0.720221,332.724
284.5000,-0.704848,332.729
284.4000,-0.719959,332.734
284.3000,-0.681707,332.745
284.2000,-0.57454,332.732
284.1000,-0.518955,332.725
284.0000,-0.527086,332.71
283.9000,-0.585863,332.717
283.8000,-0.588879,332.732
283.7000,-0.619919,332.72
283.6000,-0.682415,332.709
283.5000,-0.725992,332.695
283.4000,-0.756473,332.686
283.3000,-0.820675,332.697
283.2000,-0.841028,332.714
283.1000,-0.816608,332.722
283.0000,-0.799606,332.713
282.9000,-0.785264,332.706
282.8000,-0.755304,332.702
282.7000,-0.699045,332.719
282.6000,-0.712324,332.74
282.5000,-0.700615,332.747
282.4000,-0.634176,332.745
282.3000,-0.567509,332.745
282.2000,-0.536854,332.746
282.1000,-0.469211,332.771
282.0000,-0.423867,332.792
281.9000,-0.395611,332.798
281.8000,-0.385518,332.796
281.7000,-0.436956,332.79
281.6000,-0.451594,332.787
281.5000,-0.482396,332.783
281.4000,-0.476135,332.801
281.3000,-0.449386,332.808
281.2000,-0.453532,332.806
281.1000,-0.391285,332.807
281.0000,-0.371793,332.804
280.9000,-0.349084,332.798
280.8000,-0.295164,332.793
280.7000,-0.317648,332.791
280.6000,-0.369957,332.793
280.5000,-0.462073,332.783
280.4000,-0.511338,332.775
280.3000,-0.583115,332.763
280.2000,-0.707413,332.751
280.1000,-0.74562,332.743
280.0000,-0.774998,332.739
279.9000,-0.80524,332.734
279.8000,-0.799396,332.715
279.7000,-0.776436,332.711
279.6000,-0.789394,332.707
279.5000,-0.766302,332.711
279.4000,-0.737586,332.717
279.3000,-0.692952,332.721
279.2000,-0.694436,332.726
279.1000,-0.669837,332.732
279.0000,-0.725198,332.737
278.9000,-0.773751,332.732
278.8000,-0.791084,332.739
278.7000,-0.803754,332.751
278.6000,-0.831163,332.761
278.5000,-0.853195,332.776
278.4000,-0.852962,332.79
278.3000,-0.9011,332.803
278.2000,-0.891179,332.818
278.1000,-0.795991,332.835
278.0000,-0.739176,332.841
277.9000,-0.708763,332.838
277.8000,-0.672315,332.837
277.7000,-0.593002,332.842
277.6000,-0.577841,332.862
277.5000,-0.54069,332.879
277.4000,-0.490485,332.897
277.3000,-0.483974,332.917
277.2000,-0.467614,332.939
277.1000,-0.463686,332.958
277.0000,-0.496767,332.973
276.9000,-0.487788,332.985
276.8000,-0.479674,332.984
276.7000,-0.45855,332.979
276.6000,-0.453156,332.977
276.5000,-0.484041,332.977
276.4000,-0.5102,332.973
276.3000,-0.528298,332.971
276.2000,-0.499514,332.971
276.1000,-0.523929,332.974
276.0000,-0.556921,332.996
275.9000,-0.541799,333.02
275.8000,-0.553562,333.045
275.7000,-0.520325,333.07
275.6000,-0.482982,333.1
275.5000,-0.493758,333.126
275.4000,-0.494954,333.159
275.3000,-0.497823,333.19
275.2000,-0.449607,333.205
275.1000,-0.441571,333.214
275.0000,-0.468419,333.218
274.9000,-0.489265,333.222
274.8000,-0.582405,333.227
274.7000,-0.592526,333.234
274.6000,-0.609114,333.24
274.5000,-0.664421,333.246
274.4000,-0.761398,333.253
274.3000,-0.797916,333.265
274.2000,-0.766101,333.279
274.1000,-0.717436,333.295
274.0000,-0.698892,333.308
273.9000,-0.619709,333.327
273.8000,-0.533805,333.349
273.7000,-0.428848,333.37
273.6000,-0.287348,333.389
273.5000,-0.257064,333.406
273.4000,-0.230232,333.421
273.3000,-0.190004,333.437
273.2000,-0.135075,333.448
273.1000,-0.181591,333.456
273.0000,-0.230219,333.459
272.9000,-0.295334,333.465
272.8000,-0.382992,333.474
272.7000,-0.386428,333.487
272.6000,-0.39443,333.503
272.5000,-0.425508,333.528
272.4000,-0.445161,333.555
272.3000,-0.388577,333.585
272.2000,-0.301962,333.619
272.1000,-0.266715,333.648
272.0000,-0.249472,333.675
271.9000,-0.143684,333.702
271.8000,-0.119126,333.719
271.7000,-0.132108,333.729
271.6000,-0.141748,333.735
271.5000,-0.181361,333.742
271.4000,-0.230354,333.746
271.3000,-0.303412,333.744
271.2000,-0.294554,333.749
271.1000,-0.319404,333.755
271.0000,-0.380522,333.757
270.9000,-0.342439,333.748
270.8000,-0.330748,333.74
270.7000,-0.285158,333.736
270.6000,-0.310835,333.728
270.5000,-0.219931,333.723
270.4000,-0.203703,333.717
270.3000,-0.248675,333.701
270.2000,-0.203596,333.695
270.1000,-0.21291,333.704
270.0000,-0.235001,333.72
269.9000,-0.266752,333.734
269.8000,-0.271685,333.751
269.7000,-0.291991,333.768
269.6000,-0.314291,333.794
269.5000,-0.313211,333.823
269.4000,-0.340513,333.842
269.3000,-0.382051,333.869
269.2000,-0.387675,333.894
269.1000,-0.429088,333.917
269.0000,-0.473064,333.94
268.9000,-0.479424,333.979
268.8000,-0.489294,334.012
268.7000,-0.506515,334.049
268.6000,-0.535435,334.088
268.5000,-0.511151,334.13
268.4000,-0.530569,334.172
268.3000,-0.511123,334.21
268.2000,-0.48051,334.257
268.1000,-0.497932,334.295
268.0000,-0.476211,334.343
267.9000,-0.470048,334.384
267.8000,-0.468763,334.432
267.7000,-0.491999,334.475
267.6000,-0.482747,334.524
267.5000,-0.503969,334.572
267.4000,-0.536391,334.605
267.3000,-0.548725,334.642
267.2000,-0.580904,334.67
267.1000,-0.606722,334.711
267.0000,-0.631571,334.754
266.9000,-0.669744,334.802
266.8000,-0.681813,334.842
266.7000,-0.731108,334.871
266.6000,-0.811932,334.918
266.5000,-0.773972,334.975
266.4000,-0.707908,335.036
266.3000,-0.691237,335.092
266.2000,-0.690516,335.146
266.1000,-0.700134,335.201
266.0000,-0.697957,335.254
265.9000,-0.666894,335.32
265.8000,-0.522613,335.39
265.7000,-0.449694,335.45
265.6000,-0.516958,335.505
265.5000,-0.560984,335.562
265.4000,-0.545034,335.606
265.3000,-0.516789,335.648
265.2000,-0.500498,335.699
265.1000,-0.459121,335.754
265.0000,-0.436548,335.816
264.9000,-0.41665,335.888
264.8000,-0.365694,335.95
264.7000,-0.287447,336.017
264.6000,-0.287468,336.09
264.5000,-0.298287,336.174
264.4000,-0.289098,336.261
264.3000,-0.293012,336.33
264.2000,-0.393025,336.394
264.1000,-0.456521,336.458
264.0000,-0.487013,336.531
263.9000,-0.522531,336.606
263.8000,-0.496691,336.671
263.7000,-0.461317,336.732
263.6000,-0.441371,336.797
263.5000,-0.39988,336.882
263.4000,-0.312624,336.977
263.3000,-0.277666,337.048
263.2000,-0.275993,337.117
263.1000,-0.249058,337.187
263.0000,-0.292834,337.263
262.9000,-0.315672,337.33
262.8000,-0.266677,337.395
262.7000,-0.278157,337.455
262.6000,-0.351116,337.514
262.5000,-0.378586,337.589
262.4000,-0.419853,337.653
262.3000,-0.429832,337.719
262.2000,-0.381453,337.786
262.1000,-0.38331,337.864
262.0000,-0.37826,337.933
261.9000,-0.383778,338
261.8000,-0.373621,338.068
261.7000,-0.384593,338.123
261.6000,-0.392208,338.189
261.5000,-0.391307,338.266
261.4000,-0.429348,338.344
261.3000,-0.487358,338.416
261.2000,-0.534953,338.502
261.1000,-0.582342,338.591
261.0000,-0.590126,338.684
260.9000,-0.576453,338.766
260.8000,-0.534144,338.851
260.7000,-0.536798,338.933
260.6000,-0.52903,339.007
260.5000,-0.478745,339.087
260.4000,-0.428905,339.173
260.3000,-0.431312,339.263
260.2000,-0.503429,339.339
260.1000,-0.510239,339.424
260.0000,-0.494118,339.523
259.9000,-0.543948,339.614
259.8000,-0.583992,339.717
259.7000,-0.689515,339.818
259.6000,-0.72126,339.902
259.5000,-0.744618,339.978
259.4000,-0.6897,340.067
259.3000,-0.60681,340.154
259.2000,-0.587698,340.245
259.1000,-0.51139,340.34
259.0000,-0.38997,340.42
258.9000,-0.210161,340.5
258.8000,-0.0785963,340.589
258.7000,-0.0959128,340.663
258.6000,-0.123807,340.738
258.5000,-0.194954,340.819
258.4000,-0.260416,340.881
258.3000,-0.328743,340.945
258.2000,-0.407115,341.026
258.1000,-0.403377,341.107
258.0000,-0.364621,341.192
257.9000,-0.322002,341.296
257.8000,-0.225035,341.398
257.7000,-0.200469,341.496
257.6000,-0.169754,341.607
257.5000,-0.13442,341.707
257.4000,-0.0840378,341.807
257.3000,-0.170744,341.898
257.2000,-0.2568,341.994
257.1000,-0.291959,342.093
257.0000,-0.323458,342.19
256.9000,-0.335809,342.289
256.8000,-0.395676,342.371
256.7000,-0.415292,342.466
256.6000,-0.414761,342.562
256.5000,-0.442145,342.645
256.4000,-0.475297,342.728
256.3000,-0.538357,342.798
256.2000,-0.515996,342.871
256.1000,-0.427419,342.955
256.0000,-0.385119,343.044
255.9000,-0.383278,343.133
255.8000,-0.389449,343.205
255.7000,-0.363596,343.299
255.6000,-0.322408,343.397
255.5000,-0.262637,343.484
255.4000,-0.233668,343.574
255.3000,-0.282316,343.651
255.2000,-0.220703,343.733
255.1000,-0.133023,343.811
255.0000,-0.0453447,343.904
254.9000,-0.0100163,343.99
254.8000,0.0877704,344.073
254.7000,0.0607717,344.165
254.6000,0.00899167,344.252
254.5000,0.000236382,344.344
254.4000,-0.00824933,344.428
254.3000,0.0191791,344.517
254.2000,0.00698952,344.597
254.1000,-0.0346332,344.685
254.0000,-0.107408,344.762
253.9000,-0.0963638,344.842
253.8000,-0.0655632,344.922
253.7000,-0.0197306,345.011
253.6000,-0.0127897,345.098
253.5000,-0.0171607,345.195
253.4000,-0.0508193,345.278
253.3000,-0.0367871,345.361
253.2000,-0.076825,345.439
253.1000,-0.153216,345.528
253.0000,-0.140154,345.622
252.9000,-0.157488,345.715
252.8000,-0.149193,345.796
252.7000,-0.107226,345.878
252.6000,-0.0611499,345.966
252.5000,-0.0179348,346.059
252.4000,-0.0227594,346.14
252.3000,0.0585101,346.227
252.2000,0.0981669,346.305
252.1000,0.0603355,346.378
252.0000,-0.0154252,346.452
251.9000,-0.0731693,346.524
251.8000,-0.178396,346.601
251.7000,-0.221398,346.672
251.6000,-0.194544,346.752
251.5000,-0.177278,346.828
251.4000,-0.23509,346.906
251.3000,-0.189554,346.994
251.2000,-0.165473,347.086
251.1000,-0.113235,347.19
251.0000,-0.0923488,347.284
250.9000,-0.104844,347.384
250.8000,-0.132197,347.485
250.7000,-0.145166,347.598
250.6000,-0.165929,347.707
250.5000,-0.235157,347.804
250.4000,-0.247392,347.903
250.3000,-0.231867,347.995
250.2000,-0.205755,348.093
250.1000,-0.139612,348.179
250.0000,-0.0942907,348.264
249.9000,-0.140655,348.357
249.8000,-0.151036,348.444
249.7000,-0.163403,348.544
249.6000,-0.19037,348.634
249.5000,-0.249342,348.723
249.4000,-0.321493,348.818
249.3000,-0.353272,348.919
249.2000,-0.405201,349.02
249.1000,-0.440263,349.115
249.0000,-0.382613,349.202
248.9000,-0.329469,349.28
248.8000,-0.250832,349.374
248.7000,-0.238804,349.465
248.6000,-0.325773,349.546
248.5000,-0.397713,349.636
248.4000,-0.437338,349.734
248.3000,-0.402443,349.835
248.2000,-0.38679,349.947
248.1000,-0.354268,350.065
248.0000,-0.286296,350.172
247.9000,-0.177962,350.284
247.8000,-0.108653,350.392
247.7000,-0.0416147,350.494
247.6000,-0.0548286,350.596
247.5000,-0.0568741,350.692
247.4000,-0.155593,350.765
247.3000,-0.227973,350.827
247.2000,-0.31967,350.899
247.1000,-0.455101,350.97
247.0000,-0.520636,351.043
246.9000,-0.566251,351.122
246.8000,-0.612112,351.189
246.7000,-0.637515,351.256
246.6000,-0.644788,351.336
246.5000,-0.555824,351.438
246.4000,-0.469336,351.538
246.3000,-0.395382,351.638
246.2000,-0.258892,351.738
246.1000,-0.124474,351.842
246.0000,0.0228144,351.943
245.9000,0.208601,352.049
245.8000,0.372543,352.157
245.7000,0.414696,352.264
245.6000,0.37926,352.37
245.5000,0.371294,352.47
245.4000,0.270857,352.567
245.3000,0.202305,352.66
245.2000,0.135141,352.768
245.1000,0.0943708,352.88
245.0000,0.00349275,352.988
244.9000,-0.0680789,353.084
244.8000,-0.0487763,353.179
244.7000,-0.0842518,353.281
244.6000,-0.0483273,353.388
244.5000,-0.0789871,353.502
244.4000,-0.116632,353.608
244.3000,-0.149702,353.702
244.2000,-0.155576,353.795
244.1000,-0.118531,353.902
244.0000,-0.188873,354.007
243.9000,-0.295182,354.1
243.8000,-0.331279,354.195
243.7000,-0.285558,354.289
243.6000,-0.285121,354.376
243.5000,-0.334406,354.473
243.4000,-0.426113,354.59
243.3000,-0.467027,354.707
243.2000,-0.430869,354.819
243.1000,-0.333026,354.933
243.0000,-0.29747,355.046
242.9000,-0.252378,355.163
242.8000,-0.297237,355.283
242.7000,-0.350791,355.401
242.6000,-0.358322,355.509
242.5000,-0.425835,355.605
242.4000,-0.537625,355.71
242.3000,-0.615482,355.825
242.2000,-0.692471,355.942
242.1000,-0.77904,356.056
242.0000,-0.779901,356.169
241.9000,-0.784018,356.285
241.8000,-0.71991,356.411
241.7000,-0.664658,356.546
241.6000,-0.62702,356.676
241.5000,-0.619927,356.799
241.4000,-0.51191,356.927
241.3000,-0.504363,357.048
241.2000,-0.504287,357.171
241.1000,-0.465623,357.298
241.0000,-0.511395,357.419
240.9000,-0.573731,357.528
240.8000,-0.618018,357.637
240.7000,-0.593508,357.761
240.6000,-0.66493,357.886
240.5000,-0.741738,358.016
240.4000,-0.690027,358.156
240.3000,-0.638208,358.296
240.2000,-0.575549,358.438
240.1000,-0.447449,358.594
240.0000,-0.343743,358.748
239.9000,-0.313609,358.895
239.8000,-0.352866,359.036
239.7000,-0.374469,359.175
239.6000,-0.362791,359.312
239.5000,-0.374434,359.456
239.4000,-0.432004,359.602
239.3000,-0.465378,359.743
239.2000,-0.452468,359.891
239.1000,-0.448212,360.048
239.0000,-0.339279,360.211
238.9000,-0.268541,360.372
238.8000,-0.230783,360.539
238.7000,-0.25688,360.709
238.6000,-0.259228,360.863
238.5000,-0.272386,361.017
238.4000,-0.293221,361.173
238.3000,-0.265717,361.329
238.2000,-0.254298,361.484
238.1000,-0.251101,361.64
238.0000,-0.234776,361.797
237.9000,-0.248003,361.948
237.8000,-0.277048,362.095
237.7000,-0.211548,362.255
237.6000,-0.220626,362.418
237.5000,-0.291104,362.588
237.4000,-0.361039,362.756
237.3000,-0.44175,362.925
237.2000,-0.505225,363.096
237.1000,-0.495998,363.264
237.0000,-0.393978,363.442
236.9000,-0.362814,363.621
236.8000,-0.270893,363.801
236.7000,-0.236409,363.971
236.6000,-0.304209,364.126
236.5000,-0.327049,364.292
236.4000,-0.293538,364.467
236.3000,-0.331018,364.648
236.2000,-0.417093,364.831
236.1000,-0.494572,365.004
236.0000,-0.575047,365.174
235.9000,-0.710063,365.341
235.8000,-0.733431,365.523
235.7000,-0.68537,365.704
235.6000,-0.638023,365.886
235.5000,-0.583714,366.069
235.4000,-0.559226,366.252
235.3000,-0.527845,366.437
235.2000,-0.619805,366.62
235.1000,-0.654191,366.806
235.0000,-0.636802,366.995
234.9000,-0.63309,367.183
234.8000,-0.635814,367.365
234.7000,-0.709468,367.542
234.6000,-0.83331,367.715
234.5000,-0.853815,367.897
234.4000,-0.827729,368.085
234.3000,-0.754812,368.271
234.2000,-0.699775,368.454
234.1000,-0.595307,368.639
234.0000,-0.702175,368.815
233.9000,-0.772361,369.001
233.8000,-0.725316,369.197
233.7000,-0.727328,369.386
233.6000,-0.766492,369.576
233.5000,-0.757802,369.774
233.4000,-0.791793,369.971
233.3000,-0.842227,370.174
233.2000,-0.803358,370.391
233.1000,-0.633872,370.601
233.0000,-0.554981,370.802
232.9000,-0.549448,371
232.8000,-0.560305,371.198
232.7000,-0.59807,371.397
232.6000,-0.68321,371.591
232.5000,-0.688884,371.79
232.4000,-0.721046,371.979
232.3000,-0.836473,372.176
232.2000,-0.952513,372.374
232.1000,-1.04174,372.578
232.0000,-1.07228,372.779
231.9000,-1.15565,372.972
231.8000,-1.17652,373.162
231.7000,-1.19869,373.357
231.6000,-1.19724,373.559
231.5000,-1.23256,373.749
231.4000,-1.28822,373.939
231.3000,-1.29808,374.13
231.2000,-1.18418,374.328
231.1000,-1.11172,374.528
231.0000,-0.991732,374.73
230.9000,-0.97726,374.939
230.8000,-1.07306,375.133
230.7000,-1.0315,375.342
230.6000,-0.926907,375.554
230.5000,-0.922018,375.769
230.4000,-0.98016,375.982
230.3000,-1.0172,376.201
230.2000,-1.00412,376.42
230.1000,-1.06207,376.637
230.0000,-0.976178,376.853
229.9000,-0.949248,377.06
229.8000,-1.13166,377.26
229.7000,-1.13087,377.453
229.6000,-1.10111,377.642
229.5000,-1.02852,377.826
229.4000,-1.05529,378.007
229.3000,-1.11762,378.186
229.2000,-1.08272,378.365
229.1000,-1.09261,378.544
229.0000,-0.947387,378.731
228.9000,-0.869927,378.922
228.8000,-0.892076,379.113
228.7000,-0.993602,379.316
228.6000,-1.06864,379.525
228.5000,-1.12822,379.739
228.4000,-1.17941,379.97
228.3000,-1.20868,380.213
228.2000,-1.30134,380.455
228.1000,-1.28191,380.707
228.0000,-1.26786,380.959
227.9000,-1.15353,381.213
227.8000,-1.08162,381.46
227.7000,-1.10344,381.706
227.6000,-1.11423,381.946
227.5000,-1.11305,382.177
227.4000,-1.06013,382.408
227.3000,-1.0442,382.639
227.2000,-1.13413,382.863
227.1000,-1.19055,383.088
227.0000,-1.3256,383.306
226.9000,-1.3255,383.523
226.8000,-1.26143,383.744
226.7000,-1.34751,383.962
226.6000,-1.35627,384.184
226.5000,-1.42047,384.399
226.4000,-1.44816,384.608
226.3000,-1.4908,384.814
226.2000,-1.45216,385.033
226.1000,-1.38378,385.257
226.0000,-1.38298,385.475
225.9000,-1.3692,385.689
225.8000,-1.30579,385.9
225.7000,-1.31094,386.113
225.6000,-1.29364,386.333
225.5000,-1.23678,386.558
225.4000,-1.15317,386.781
225.3000,-1.11007,387.005
225.2000,-1.12873,387.227
225.1000,-1.17946,387.45
225.0000,-1.26743,387.673
224.9000,-1.41705,387.889
224.8000,-1.52425,388.105
224.7000,-1.61619,388.322
224.6000,-1.84802,388.534
224.5000,-2.05761,388.74
224.4000,-2.18505,388.95
224.3000,-2.17285,389.169
224.2000,-2.07041,389.391
224.1000,-2.00772,389.616
224.0000,-1.96869,389.842
223.9000,-2.0651,390.064
223.8000,-2.04068,390.292
223.7000,-1.86725,390.527
223.6000,-1.74015,390.763
223.5000,-1.6611,390.994
223.4000,-1.79114,391.215
223.3000,-1.87424,391.431
223.2000,-1.81926,391.65
223.1000,-1.66576,391.872
223.0000,-1.439,392.099
222.9000,-1.42232,392.315
222.8000,-1.48889,392.525
222.7000,-1.53967,392.737
222.6000,-1.64943,392.949
222.5000,-1.61116,393.167
222.4000,-1.51615,393.387
222.3000,-1.42582,393.605
222.2000,-1.45323,393.82
222.1000,-1.49748,394.033
222.0000,-1.58311,394.244
221.9000,-1.54555,394.453
221.8000,-1.39985,394.666
221.7000,-1.28757,394.882
221.6000,-1.31847,395.099
221.5000,-1.47697,395.313
221.4000,-1.51035,395.525
221.3000,-1.61,395.738
221.2000,-1.65943,395.951
221.1000,-1.70246,396.17
221.0000,-1.70706,396.39
220.9000,-1.59505,396.611
220.8000,-1.60323,396.828
220.7000,-1.60177,397.041
220.6000,-1.54454,397.257
220.5000,-1.43128,397.482
220.4000,-1.29638,397.701
220.3000,-1.20259,397.923
220.2000,-1.20675,398.146
220.1000,-1.26841,398.364
220.0000,-1.4505,398.58
219.9000,-1.41882,398.806
219.8000,-1.48113,399.028
219.7000,-1.60339,399.245
219.6000,-1.62254,399.466
219.5000,-1.65678,399.691
219.4000,-1.78217,399.914
219.3000,-1.87326,400.134
219.2000,-1.78933,400.357
219.1000,-1.67361,400.58
219.0000,-1.64856,400.806
218.9000,-1.60603,401.03
218.8000,-1.54928,401.258
218.7000,-1.54203,401.479
218.6000,-1.34976,401.706
218.5000,-1.29024,401.925
218.4000,-1.39395,402.146
218.3000,-1.44685,402.364
218.2000,-1.47502,402.589
218.1000,-1.49513,402.809
218.0000,-1.48565,403.033
217.9000,-1.50415,403.252
217.8000,-1.51053,403.464
217.7000,-1.42677,403.69
217.6000,-1.28967,403.913
217.5000,-1.18117,404.144
217.4000,-0.997368,404.369
217.3000,-0.902276,404.593
217.2000,-0.75354,404.819
217.1000,-0.703349,405.038
217.0000,-0.70823,405.256
216.9000,-0.729084,405.476
216.8000,-0.830857,405.687
216.7000,-1.00355,405.893
216.6000,-1.34825,406.101
216.5000,-1.48181,406.313
216.4000,-1.5816,406.522
216.3000,-1.62521,406.734
216.2000,-1.56373,406.959
216.1000,-1.51286,407.181
216.0000,-1.42753,407.406
215.9000,-1.32125,407.63
215.8000,-1.27006,407.849
215.7000,-1.13971,408.078
215.6000,-1.19294,408.302
215.5000,-1.16773,408.534
215.4000,-1.25641,408.76
215.3000,-1.43943,408.981
215.2000,-1.58319,409.202
215.1000,-1.60207,409.441
215.0000,-1.47926,409.686
214.9000,-1.47164,409.922
214.8000,-1.46182,410.159
214.7000,-1.53728,410.395
214.6000,-1.49028,410.635
214.5000,-1.36882,410.877
214.4000,-1.20528,411.126
214.3000,-1.27091,411.361
214.2000,-1.31111,411.596
214.1000,-1.2628,411.833
214.0000,-1.17902,412.074
213.9000,-1.23881,412.311
213.8000,-1.40466,412.546
213.7000,-1.63714,412.783
213.6000,-1.80739,413.019
213.5000,-1.71042,413.268
213.4000,-1.50115,413.524
213.3000,-1.54184,413.775
213.2000,-1.59785,414.028
213.1000,-1.57631,414.285
213.0000,-1.57348,414.543
212.9000,-1.45287,414.807
212.8000,-1.27317,415.065
212.7000,-1.32166,415.316
212.6000,-1.56776,415.562
212.5000,-1.66131,415.813
212.4000,-1.6538,416.071
212.3000,-1.57468,416.326
212.2000,-1.50222,416.583
212.1000,-1.33009,416.847
212.0000,-1.40979,417.114
211.9000,-1.60235,417.382
211.8000,-1.51987,417.655
211.7000,-1.50393,417.93
211.6000,-1.4364,418.209
211.5000,-1.4299,418.484
211.4000,-1.39464,418.764
211.3000,-1.38683,419.044
211.2000,-1.4098,419.318
211.1000,-1.36387,419.596
211.0000,-1.3419,419.88
210.9000,-1.44666,420.16
210.8000,-1.38912,420.443
210.7000,-1.48844,420.731
210.6000,-1.61796,421.019
210.5000,-1.84353,421.306
210.4000,-1.96831,421.598
210.3000,-1.87717,421.903
210.2000,-1.70022,422.204
210.1000,-1.60066,422.507
210.0000,-1.47806,422.814
209.9000,-1.34573,423.12
209.8000,-1.18033,423.421
209.7000,-1.14817,423.723
209.6000,-1.08593,424.026
209.5000,-1.18237,424.324
209.4000,-1.35366,424.621
209.3000,-1.2703,424.929
209.2000,-1.23796,425.236
209.1000,-1.40304,425.537
209.0000,-1.62479,425.838
208.9000,-1.76248,426.145
208.8000,-1.87166,426.452
208.7000,-1.79123,426.763
208.6000,-1.60596,427.087
208.5000,-1.57972,427.406
208.4000,-1.69753,427.719
208.3000,-1.77602,428.039
208.2000,-1.69989,428.368
208.1000,-1.45685,428.702
208.0000,-1.30694,429.032
207.9000,-1.20262,429.361
207.8000,-1.204,429.689
207.7000,-1.29375,430.013
207.6000,-1.43821,430.339
207.5000,-1.55724,430.662
207.4000,-1.63923,430.983
207.3000,-1.77343,431.3
207.2000,-1.86186,431.622
207.1000,-2.12823,431.936
207.0000,-2.18109,432.26
206.9000,-2.25434,432.581
206.8000,-2.16827,432.908
206.7000,-2.01571,433.238
206.6000,-2.03856,433.563
206.5000,-2.20275,433.885
206.4000,-2.28887,434.212
206.3000,-2.30172,434.546
206.2000,-2.38761,434.872
206.1000,-2.41013,435.197
206.0000,-2.39781,435.525
205.9000,-2.26886,435.852
205.8000,-2.00575,436.187
205.7000,-1.70887,436.523
205.6000,-1.36709,436.86
205.5000,-1.08821,437.198
205.4000,-0.767856,437.539
205.3000,-0.712692,437.874
205.2000,-0.704819,438.208
205.1000,-0.824797,438.544
205.0000,-0.995225,438.879
204.9000,-1.11566,439.219
204.8000,-1.32458,439.561
204.7000,-1.42103,439.912
204.6000,-1.43741,440.266
204.5000,-1.36928,440.628
204.4000,-1.30711,440.993
204.3000,-1.06938,441.366
204.2000,-0.936439,441.737
204.1000,-0.80517,442.107
204.0000,-0.621242,442.482
203.9000,-0.556155,442.853
203.8000,-0.587641,443.222
203.7000,-0.685514,443.593
203.6000,-0.771347,443.967
203.5000,-0.703289,444.345
203.4000,-0.522803,444.734
203.3000,-0.538763,445.121
203.2000,-0.664058,445.509
203.1000,-0.700929,445.901
203.0000,-0.553015,446.302
202.9000,-0.462017,446.7
202.8000,-0.275924,447.099
202.7000,-0.212544,447.5
202.6000,-0.247271,447.899
202.5000,-0.0657714,448.301
202.4000,0.13977,448.706
202.3000,0.339536,449.116
202.2000,0.355368,449.521
202.1000,0.284477,449.927
202.0000,0.30415,450.344
201.9000,0.0476596,450.76
201.8000,-0.235737,451.182
201.7000,-0.516035,451.615
201.6000,-0.762144,452.057
201.5000,-0.967735,452.503
201.4000,-0.924717,452.958
201.3000,-0.817605,453.426
201.2000,-0.818102,453.895
201.1000,-0.69711,454.372
201.0000,-0.284095,454.863
200.9000,-0.149168,455.35
200.8000,0.00757604,455.846
200.7000,0.225366,456.353
200.6000,0.228554,456.868
200.5000,0.0298189,457.386
200.4000,0.0362715,457.923
200.3000,0.159672,458.473
200.2000,0.135664,459.024
200.1000,0.209237,459.581
200.0000,0.404074,460.143
199.9000,0.593865,460.708
199.8000,0.832283,461.27
199.7000,1.1181,461.827
199.6000,1.44918,462.386
199.5000,1.52679,462.941
199.4000,1.63839,463.498
199.3000,1.62937,464.056
199.2000,1.59206,464.626
199.1000,1.37335,465.2
199.0000,1.2229,465.788
198.9000,1.20212,466.402
198.8000,1.13873,467.027
198.7000,1.21293,467.674
198.6000,1.18141,468.335
198.5000,1.11113,469.019
198.4000,1.07722,469.714
198.3000,1.32689,470.431
198.2000,1.46807,471.173
198.1000,1.43668,471.933
198.0000,1.42655,472.726
197.9000,1.46005,473.54
197.8000,1.7628,474.379
197.7000,2.1484,475.237
197.6000,2.1986,476.092
197.5000,2.00015,476.944
197.4000,2.00044,477.785
197.3000,2.36132,478.616
197.2000,2.56884,479.409
197.1000,2.68914,480.169
197.0000,2.50312,480.899
196.9000,2.26982,481.619
196.8000,2.23266,482.344
196.7000,2.79353,483.101
196.6000,3.08736,483.876
196.5000,3.19639,484.683
196.4000,3.31135,485.547
196.3000,3.37076,486.466
196.2000,3.25255,487.44
196.1000,3.15942,488.474
196.0000,3.47617,489.588
195.9000,3.39133,490.777
195.8000,2.87911,492.055
195.7000,2.52745,493.456
195.6000,2.17939,494.965
195.5000,2.06726,496.592
195.4000,2.11318,498.307
195.3000,2.26796,500.074
195.2000,2.41983,501.87
195.1000,2.45497,503.633
195.0000,2.91747,505.32
194.9000,3.33514,506.852
194.8000,3.44868,508.208
194.7000,3.62245,509.4
194.6000,3.6333,510.461
194.5000,3.72232,511.435
194.4000,3.76216,512.362
194.3000,3.04215,513.255
194.2000,2.63091,514.223
194.1000,2.08646,515.313
194.0000,2.05632,516.613
193.9000,1.84141,518.136
193.8000,2.00842,519.903
193.7000,1.7462,521.93
193.6000,1.44198,524.253
193.5000,1.89396,526.93
193.4000,2.57244,529.999
193.3000,3.04725,533.43
193.2000,3.25841,537.167
193.1000,3.15109,541.121
193.0000,2.80191,545.205
192.9000,2.58719,549.297
192.8000,2.78672,553.262
192.7000,2.64756,556.889
192.6000,2.07621,559.982
192.5000,1.74015,562.496
192.4000,1.48302,564.476
192.3000,1.65666,566.013
192.2000,1.894,567.203
192.1000,1.92613,568.159
192.0000,2.49829,569.065
191.9000,3.87814,570.137
191.8000,4.76505,571.574
191.7000,5.05649,573.529
191.6000,5.27217,576.065
191.5000,5.17072,579.169
191.4000,5.33535,582.871
191.3000,5.83512,587.25
191.2000,5.82891,592.299
191.1000,5.02603,597.947
191.0000,3.72081,604.105
190.9000,3.03334,610.665
190.8000,2.77213,617.498
190.7000,2.40077,624.409
190.6000,2.46387,631.22
190.5000,3.142,637.622
190.4000,3.60996,643.304
190.3000,3.79127,648.145
190.2000,4.15999,652.183
190.1000,5.11559,655.53
190.0000,5.54963,658.302

##### Extended Information
[Comments]
Sample name,ACE2_seo_0.8uM
Comment
User
Division
Company,CSIR-IMTECH

[Detailed Information]
Creation date,4/8/2024 5:36 PM

Data array type,Linear data array * 2
Horizontal axis,Wavelength [nm]
Vertical axis(1),CD [mdeg]
Vertical axis(2),HT [V]
Start,350 nm
End,190 nm
Data interval,0.1 nm
Data points,1601    

[Measurement Information]
Instrument Name,JASCO CD
Model Name,J-815
Serial No.,B063061168

Accessory,PTC-423S
Accessory S/N,C013945-01
  Temperature,36.77 C
  Control Sonsor,Cell
  Monitor Sensor,Cell
  Start Mode,Start immediately
  Cell Length,10 mm

Measurement date,4/8/2024 5:35 PM

Photometric Mode,CD, HT
Measure Range,350 - 190 nm
Data pitch,0.1 nm
Sensitivity,Standard
D.I.T.,1 sec
Bandwidth,1.00 nm
Start Mode,Immediately
Scanning Speed,50 nm/min
Baseline Correction,None
Shutter Control,Auto
CD Detector,PMT
PMT Voltage,Auto
Accumulations,3
Concentration,0.27 umol/L

