TITLE,ACE2_Cal_0.6uM
DATA TYPE,
ORIGIN,JASCO
OWNER,
DATE,24/04/09
TIME,16:30:51
SPECTROMETER/DATA SYSTEM,
LOCALE,1033
RESOLUTION,
DELTAX,-0.1
XUNITS,NANOMETERS
YUNITS,Mol. Ellip.
Y2UNITS,HT [V]
FIRSTX,  350.0000
LASTX,  190.0000
NPOINTS,    1601
FIRSTY,-4945729.00000
MAXY,25585720.00000
MINY,-12443740.00000
XYDATA
350.0000,-4.94573E+006,477.388
349.9000,-3.45827E+006,476.82
349.8000,-2.07496E+006,475.946
349.7000,-1.02986E+006,475.057
349.6000,-256097,474.42
349.5000,624554,473.873
349.4000,890532,473.04
349.3000,729063,472.441
349.2000,485586,471.921
349.1000,815843,471.08
349.0000,482101,470.457
348.9000,341245,469.909
348.8000,234799,469.076
348.7000,190688,468.229
348.6000,305178,467.608
348.5000,1.07559E+006,467.062
348.4000,1.53032E+006,466.187
348.3000,1.41105E+006,465.537
348.2000,795652,464.969
348.1000,353192,464.128
348.0000,29950.9,463.499
347.9000,-276310,462.949
347.8000,181375,462.128
347.7000,894454,461.295
347.6000,659709,460.697
347.5000,590691,460.202
347.4000,1.07573E+006,459.43
347.3000,1.32874E+006,458.847
347.2000,1.11003E+006,458.341
347.1000,1.29391E+006,457.569
347.0000,388653,456.984
346.9000,-1.44344E+006,456.469
346.8000,-1.60193E+006,455.702
346.7000,-2.00996E+006,454.922
346.6000,-2.45186E+006,454.344
346.5000,-3.21403E+006,453.586
346.4000,-3.49293E+006,452.819
346.3000,-4.38502E+006,452.233
346.2000,-4.26781E+006,451.48
346.1000,-3.6705E+006,450.72
346.0000,-4.05651E+006,450.152
345.9000,-3.69495E+006,449.665
345.8000,-3.4589E+006,448.903
345.7000,-3.0138E+006,448.337
345.6000,-2.29257E+006,447.856
345.5000,-1.37509E+006,447.155
345.4000,-814847,446.645
345.3000,-890930,446.205
345.2000,-141852,445.517
345.1000,-511258,444.809
345.0000,-738406,444.291
344.9000,-1.30514E+006,443.623
344.8000,-2.09639E+006,442.943
344.7000,-3.00193E+006,442.418
344.6000,-3.78027E+006,441.748
344.5000,-3.66447E+006,441.079
344.4000,-3.49278E+006,440.586
344.3000,-3.14093E+006,439.929
344.2000,-2.54273E+006,439.26
344.1000,-2.09466E+006,438.759
344.0000,-1.91622E+006,438.116
343.9000,-1.45673E+006,437.469
343.8000,-1.29031E+006,436.99
343.7000,-1.52701E+006,436.566
343.6000,-1.57876E+006,435.911
343.5000,-1.78221E+006,435.431
343.4000,-2.25129E+006,435.025
343.3000,-2.4221E+006,434.395
343.2000,-2.27705E+006,433.927
343.1000,-1.98682E+006,433.52
343.0000,-2.07319E+006,432.914
342.9000,-1.93505E+006,432.3
342.8000,-1.589E+006,431.851
342.7000,-1.94328E+006,431.249
342.6000,-1.96093E+006,430.645
342.5000,-2.54168E+006,430.197
342.4000,-2.07681E+006,429.641
342.3000,-2.18579E+006,429.073
342.2000,-2.15902E+006,428.643
342.1000,-2.14527E+006,428.079
342.0000,-2.51225E+006,427.503
341.9000,-2.63034E+006,427.092
341.8000,-2.67549E+006,426.527
341.7000,-2.09533E+006,425.954
341.6000,-2.01471E+006,425.517
341.5000,-2.01105E+006,424.97
341.4000,-1.86518E+006,424.422
341.3000,-2.11593E+006,424.007
341.2000,-2.62166E+006,423.442
341.1000,-3.32288E+006,422.862
341.0000,-3.49469E+006,422.446
340.9000,-3.20383E+006,421.926
340.8000,-2.93867E+006,421.397
340.7000,-2.92364E+006,420.986
340.6000,-3.8163E+006,420.453
340.5000,-3.94047E+006,419.92
340.4000,-3.39796E+006,419.543
340.3000,-3.23497E+006,419.034
340.2000,-3.0644E+006,418.517
340.1000,-3.37977E+006,418.132
340.0000,-3.41442E+006,417.647
339.9000,-3.44124E+006,417.156
339.8000,-2.66153E+006,416.794
339.7000,-2.09588E+006,416.327
339.6000,-1.74702E+006,415.852
339.5000,-1.27672E+006,415.524
339.4000,-1.03553E+006,415.07
339.3000,-413025,414.597
339.2000,-467708,414.085
339.1000,-529478,413.628
339.0000,-306929,413.165
338.9000,-598323,412.635
338.8000,-973388,412.15
338.7000,-633656,411.662
338.6000,-538561,411.13
338.5000,-488430,410.662
338.4000,-625932,410.31
338.3000,-120535,409.865
338.2000,43073.5,409.409
338.1000,384147,409.086
338.0000,579422,408.662
337.9000,133620,408.228
337.8000,-330518,407.919
337.7000,-816181,407.528
337.6000,-755119,407.128
337.5000,-948296,406.825
337.4000,-1.35653E+006,406.438
337.3000,-1.55923E+006,406.037
337.2000,-1.37139E+006,405.585
337.1000,-1.33011E+006,405.18
337.0000,-1.48084E+006,404.767
336.9000,-1.36294E+006,404.327
336.8000,-1.40164E+006,403.934
336.7000,-1.42207E+006,403.537
336.6000,-1.12472E+006,403.083
336.5000,-967220,402.672
336.4000,-853103,402.377
336.3000,-880532,401.983
336.2000,-540709,401.588
336.1000,19887.7,401.29
336.0000,-42014,400.905
335.9000,-219242,400.504
335.8000,-888896,400.074
335.7000,-1.2307E+006,399.696
335.6000,-1.78492E+006,399.312
335.5000,-1.98627E+006,398.923
335.4000,-2.32725E+006,398.58
335.3000,-2.86489E+006,398.227
335.2000,-3.0102E+006,397.857
335.1000,-2.54436E+006,397.536
335.0000,-1.75942E+006,397.32
334.9000,-1.14588E+006,396.998
334.8000,-741982,396.658
334.7000,-830279,396.282
334.6000,-444507,395.955
334.5000,-253474,395.623
334.4000,72931.8,395.237
334.3000,304112,394.881
334.2000,-161598,394.513
334.1000,-544978,394.127
334.0000,-898205,393.791
333.9000,-666351,393.554
333.8000,-215395,393.23
333.7000,49135.6,392.894
333.6000,114571,392.522
333.5000,-180978,392.195
333.4000,-61733.7,391.866
333.3000,13592,391.518
333.2000,-7574.39,391.214
333.1000,-280503,390.902
333.0000,-839491,390.562
332.9000,-1.45642E+006,390.258
332.8000,-1.55973E+006,389.921
332.7000,-1.23591E+006,389.629
332.6000,-976685,389.332
332.5000,-869914,389.01
332.4000,-1.1412E+006,388.721
332.3000,-1.40177E+006,388.426
332.2000,-1.48554E+006,388.088
332.1000,-1.04724E+006,387.786
332.0000,-880558,387.464
331.9000,-915341,387.189
331.8000,-1.25013E+006,386.905
331.7000,-1.40618E+006,386.573
331.6000,-1.15413E+006,386.271
331.5000,-642973,385.862
331.4000,-493765,385.543
331.3000,-578927,385.264
331.2000,-678795,384.954
331.1000,-873904,384.678
331.0000,-1.35837E+006,384.394
330.9000,-1.37604E+006,384.113
330.8000,-1.5405E+006,383.867
330.7000,-1.96255E+006,383.576
330.6000,-2.42662E+006,383.315
330.5000,-2.53357E+006,383.054
330.4000,-2.3866E+006,382.776
330.3000,-2.5657E+006,382.532
330.2000,-2.65678E+006,382.173
330.1000,-3.02948E+006,381.876
330.0000,-3.64721E+006,381.609
329.9000,-3.51289E+006,381.33
329.8000,-3.26081E+006,381.083
329.7000,-2.83322E+006,380.752
329.6000,-2.77777E+006,380.488
329.5000,-2.14015E+006,380.26
329.4000,-1.73086E+006,379.986
329.3000,-1.3407E+006,379.743
329.2000,-1.06762E+006,379.398
329.1000,-597310,379.127
329.0000,-468981,378.891
328.9000,-624523,378.625
328.8000,-895903,378.38
328.7000,-1.2599E+006,378.042
328.6000,-1.34861E+006,377.796
328.5000,-1.22428E+006,377.594
328.4000,-882905,377.352
328.3000,-1.11639E+006,377.135
328.2000,-1.02946E+006,376.844
328.1000,-729131,376.616
328.0000,-351059,376.419
327.9000,-329569,376.173
327.8000,-487880,375.95
327.7000,-1.06317E+006,375.691
327.6000,-1.49476E+006,375.518
327.5000,-1.65459E+006,375.384
327.4000,-1.93156E+006,375.122
327.3000,-2.11493E+006,374.878
327.2000,-2.2681E+006,374.586
327.1000,-2.61794E+006,374.369
327.0000,-2.83971E+006,374.189
326.9000,-2.36064E+006,373.921
326.8000,-2.08644E+006,373.647
326.7000,-2.19234E+006,373.324
326.6000,-2.10088E+006,373.133
326.5000,-2.12255E+006,373.007
326.4000,-1.84508E+006,372.768
326.3000,-1.50916E+006,372.535
326.2000,-743489,372.285
326.1000,-605500,372.112
326.0000,-578713,371.822
325.9000,-299059,371.562
325.8000,-304831,371.308
325.7000,-150969,371.058
325.6000,-658639,370.906
325.5000,-1.22927E+006,370.611
325.4000,-1.39093E+006,370.33
325.3000,-1.60132E+006,370.05
325.2000,-1.85941E+006,369.879
325.1000,-2.16887E+006,369.765
325.0000,-2.39532E+006,369.501
324.9000,-2.78906E+006,369.229
324.8000,-2.77381E+006,368.942
324.7000,-2.61397E+006,368.801
324.6000,-2.66172E+006,368.727
324.5000,-3.17461E+006,368.47
324.4000,-3.54267E+006,368.209
324.3000,-3.4912E+006,367.964
324.2000,-3.24013E+006,367.827
324.1000,-2.83781E+006,367.567
324.0000,-2.77758E+006,367.307
323.9000,-3.12423E+006,367.036
323.8000,-3.6528E+006,366.789
323.7000,-3.78746E+006,366.665
323.6000,-3.69405E+006,366.41
323.5000,-3.40411E+006,366.138
323.4000,-3.18623E+006,365.873
323.3000,-3.4397E+006,365.733
323.2000,-3.36665E+006,365.653
323.1000,-3.14094E+006,365.408
323.0000,-2.71424E+006,365.144
322.9000,-2.50478E+006,364.867
322.8000,-2.33066E+006,364.724
322.7000,-2.23139E+006,364.479
322.6000,-2.50795E+006,364.203
322.5000,-2.39605E+006,363.929
322.4000,-2.72226E+006,363.648
322.3000,-3.22783E+006,363.478
322.2000,-3.17737E+006,363.192
322.1000,-2.93004E+006,362.893
322.0000,-2.44227E+006,362.611
321.9000,-2.57966E+006,362.448
321.8000,-2.76647E+006,362.18
321.7000,-3.02015E+006,361.901
321.6000,-2.84468E+006,361.616
321.5000,-2.59256E+006,361.352
321.4000,-2.75375E+006,361.217
321.3000,-3.03871E+006,361.019
321.2000,-3.71977E+006,360.81
321.1000,-3.80874E+006,360.599
321.0000,-3.90523E+006,360.521
320.9000,-3.83668E+006,360.374
320.8000,-3.90084E+006,360.228
320.7000,-3.98433E+006,360.09
320.6000,-3.99265E+006,359.953
320.5000,-3.7641E+006,359.914
320.4000,-3.62266E+006,359.762
320.3000,-3.48588E+006,359.602
320.2000,-3.50843E+006,359.449
320.1000,-3.31782E+006,359.394
320.0000,-3.65836E+006,359.24
319.9000,-3.90306E+006,359.068
319.8000,-3.64364E+006,358.882
319.7000,-3.57523E+006,358.685
319.6000,-3.2357E+006,358.478
319.5000,-3.24545E+006,358.318
319.4000,-2.94157E+006,358.147
319.3000,-2.73777E+006,357.943
319.2000,-2.40593E+006,357.838
319.1000,-2.32614E+006,357.643
319.0000,-2.23133E+006,357.445
318.9000,-2.20204E+006,357.245
318.8000,-2.37849E+006,357.13
318.7000,-2.32211E+006,356.918
318.6000,-2.5175E+006,356.695
318.5000,-2.76071E+006,356.497
318.4000,-3.03421E+006,356.303
318.3000,-3.00375E+006,356.096
318.2000,-3.12282E+006,355.936
318.1000,-3.01984E+006,355.78
318.0000,-2.8512E+006,355.605
317.9000,-2.78012E+006,355.531
317.8000,-2.83541E+006,355.409
317.7000,-2.91368E+006,355.274
317.6000,-2.93779E+006,355.102
317.5000,-2.8587E+006,355.009
317.4000,-2.83684E+006,354.861
317.3000,-2.77606E+006,354.704
317.2000,-2.77682E+006,354.528
317.1000,-2.96007E+006,354.347
317.0000,-3.11571E+006,354.114
316.9000,-3.11385E+006,353.915
316.8000,-3.15314E+006,353.734
316.7000,-3.04029E+006,353.557
316.6000,-2.9224E+006,353.368
316.5000,-2.88694E+006,353.211
316.4000,-3.15172E+006,353.04
316.3000,-3.2613E+006,352.872
316.2000,-3.21277E+006,352.716
316.1000,-3.05956E+006,352.603
316.0000,-2.69612E+006,352.498
315.9000,-2.49718E+006,352.346
315.8000,-2.23814E+006,352.25
315.7000,-2.06661E+006,352.094
315.6000,-1.9032E+006,351.958
315.5000,-1.74572E+006,351.794
315.4000,-1.7113E+006,351.684
315.3000,-1.8305E+006,351.488
315.2000,-1.96573E+006,351.284
315.1000,-2.19909E+006,351.097
315.0000,-2.37995E+006,350.922
314.9000,-2.40366E+006,350.745
314.8000,-2.50269E+006,350.596
314.7000,-2.78831E+006,350.441
314.6000,-3.03862E+006,350.289
314.5000,-3.05972E+006,350.152
314.4000,-3.05776E+006,350.054
314.3000,-2.78281E+006,349.933
314.2000,-2.58511E+006,349.811
314.1000,-2.64765E+006,349.639
314.0000,-2.69779E+006,349.487
313.9000,-2.72073E+006,349.338
313.8000,-2.67298E+006,349.196
313.7000,-2.57697E+006,348.992
313.6000,-2.63763E+006,348.803
313.5000,-3.01229E+006,348.623
313.4000,-3.18139E+006,348.455
313.3000,-3.24946E+006,348.293
313.2000,-3.44592E+006,348.159
313.1000,-3.57881E+006,348.013
313.0000,-3.47011E+006,347.87
312.9000,-3.77629E+006,347.737
312.8000,-3.94678E+006,347.643
312.7000,-3.82738E+006,347.52
312.6000,-3.84125E+006,347.398
312.5000,-4.11536E+006,347.241
312.4000,-4.2886E+006,347.095
312.3000,-4.08708E+006,346.929
312.2000,-3.87736E+006,346.77
312.1000,-3.72393E+006,346.559
312.0000,-3.53722E+006,346.366
311.9000,-3.62697E+006,346.179
311.8000,-3.67554E+006,345.957
311.7000,-3.88675E+006,345.782
311.6000,-3.83669E+006,345.602
311.5000,-3.70456E+006,345.461
311.4000,-3.92126E+006,345.277
311.3000,-3.88699E+006,345.163
311.2000,-3.96404E+006,345.044
311.1000,-4.07104E+006,344.949
311.0000,-4.13237E+006,344.843
310.9000,-3.93644E+006,344.754
310.8000,-3.58561E+006,344.656
310.7000,-3.30046E+006,344.569
310.6000,-3.15927E+006,344.45
310.5000,-3.10098E+006,344.352
310.4000,-2.99589E+006,344.257
310.3000,-2.92964E+006,344.175
310.2000,-2.78106E+006,344.095
310.1000,-2.74341E+006,344.03
310.0000,-2.55491E+006,343.96
309.9000,-2.60773E+006,343.898
309.8000,-2.80501E+006,343.839
309.7000,-2.85314E+006,343.756
309.6000,-3.07414E+006,343.685
309.5000,-3.08614E+006,343.575
309.4000,-3.05931E+006,343.488
309.3000,-3.21053E+006,343.358
309.2000,-3.38763E+006,343.256
309.1000,-3.68263E+006,343.095
309.0000,-3.88279E+006,342.96
308.9000,-3.9521E+006,342.843
308.8000,-3.67496E+006,342.745
308.7000,-3.3804E+006,342.655
308.6000,-3.23234E+006,342.574
308.5000,-3.11324E+006,342.479
308.4000,-2.81644E+006,342.373
308.3000,-2.70064E+006,342.308
308.2000,-2.62862E+006,342.21
308.1000,-2.43121E+006,342.134
308.0000,-2.36196E+006,342.032
307.9000,-2.61662E+006,341.945
307.8000,-2.67929E+006,341.809
307.7000,-2.76816E+006,341.707
307.6000,-2.87321E+006,341.592
307.5000,-2.90301E+006,341.435
307.4000,-2.835E+006,341.319
307.3000,-2.66336E+006,341.203
307.2000,-2.57999E+006,341.11
307.1000,-2.45326E+006,340.977
307.0000,-2.33319E+006,340.886
306.9000,-2.41219E+006,340.793
306.8000,-2.5085E+006,340.733
306.7000,-2.49218E+006,340.667
306.6000,-2.40627E+006,340.582
306.5000,-2.59816E+006,340.507
306.4000,-2.69402E+006,340.386
306.3000,-2.65918E+006,340.301
306.2000,-2.74611E+006,340.19
306.1000,-2.54889E+006,340.096
306.0000,-2.44822E+006,339.959
305.9000,-2.52049E+006,339.862
305.8000,-2.73296E+006,339.786
305.7000,-2.84452E+006,339.671
305.6000,-2.86128E+006,339.594
305.5000,-3.16719E+006,339.515
305.4000,-2.8244E+006,339.472
305.3000,-2.89635E+006,339.378
305.2000,-3.12769E+006,339.311
305.1000,-3.3824E+006,339.232
305.0000,-3.46149E+006,339.116
304.9000,-3.50504E+006,339.042
304.8000,-3.61767E+006,338.951
304.7000,-3.46442E+006,338.871
304.6000,-3.54382E+006,338.75
304.5000,-3.55097E+006,338.652
304.4000,-3.33132E+006,338.575
304.3000,-3.18971E+006,338.469
304.2000,-3.05479E+006,338.408
304.1000,-3.11868E+006,338.35
304.0000,-3.22453E+006,338.316
303.9000,-3.1855E+006,338.235
303.8000,-3.38448E+006,338.164
303.7000,-3.43688E+006,338.118
303.6000,-3.54692E+006,338.021
303.5000,-3.43644E+006,337.961
303.4000,-3.17712E+006,337.886
303.3000,-2.97632E+006,337.783
303.2000,-2.63854E+006,337.681
303.1000,-2.60877E+006,337.601
303.0000,-2.74206E+006,337.553
302.9000,-2.92868E+006,337.462
302.8000,-2.9577E+006,337.393
302.7000,-2.99068E+006,337.344
302.6000,-3.07038E+006,337.264
302.5000,-3.14908E+006,337.22
302.4000,-3.28887E+006,337.169
302.3000,-3.34017E+006,337.086
302.2000,-3.28038E+006,337.004
302.1000,-3.07617E+006,336.926
302.0000,-3.19879E+006,336.871
301.9000,-3.36467E+006,336.789
301.8000,-3.64453E+006,336.715
301.7000,-3.74168E+006,336.661
301.6000,-3.5386E+006,336.58
301.5000,-3.42692E+006,336.535
301.4000,-3.33914E+006,336.491
301.3000,-3.21738E+006,336.421
301.2000,-3.14744E+006,336.364
301.1000,-3.02141E+006,336.314
301.0000,-2.85713E+006,336.292
300.9000,-2.78142E+006,336.225
300.8000,-2.89598E+006,336.155
300.7000,-3.02355E+006,336.096
300.6000,-2.81225E+006,336.022
300.5000,-2.71214E+006,335.961
300.4000,-2.71145E+006,335.918
300.3000,-2.71161E+006,335.847
300.2000,-2.48734E+006,335.78
300.1000,-2.33786E+006,335.729
300.0000,-2.53999E+006,335.671
299.9000,-2.75828E+006,335.623
299.8000,-3.27018E+006,335.572
299.7000,-3.62512E+006,335.509
299.6000,-3.72389E+006,335.451
299.5000,-3.71828E+006,335.392
299.4000,-3.79684E+006,335.346
299.3000,-4.03129E+006,335.28
299.2000,-3.8537E+006,335.232
299.1000,-3.49893E+006,335.2
299.0000,-3.17729E+006,335.142
298.9000,-3.26011E+006,335.098
298.8000,-3.00242E+006,335.07
298.7000,-3.00534E+006,335.021
298.6000,-3.08095E+006,334.978
298.5000,-3.03111E+006,334.934
298.4000,-3.2344E+006,334.876
298.3000,-3.49542E+006,334.823
298.2000,-3.87355E+006,334.765
298.1000,-3.83688E+006,334.709
298.0000,-4.07031E+006,334.657
297.9000,-4.28036E+006,334.61
297.8000,-4.41495E+006,334.547
297.7000,-4.45377E+006,334.499
297.6000,-4.4996E+006,334.465
297.5000,-4.57038E+006,334.408
297.4000,-4.37239E+006,334.371
297.3000,-4.23854E+006,334.342
297.2000,-3.89906E+006,334.287
297.1000,-3.77012E+006,334.246
297.0000,-3.56349E+006,334.205
296.9000,-3.37703E+006,334.145
296.8000,-3.00766E+006,334.1
296.7000,-2.61111E+006,334.068
296.6000,-2.23777E+006,334.046
296.5000,-2.17694E+006,334.003
296.4000,-2.35152E+006,333.972
296.3000,-2.45435E+006,333.952
296.2000,-2.51538E+006,333.916
296.1000,-2.72461E+006,333.89
296.0000,-2.69395E+006,333.873
295.9000,-2.97014E+006,333.834
295.8000,-3.19218E+006,333.773
295.7000,-3.14737E+006,333.737
295.6000,-3.13534E+006,333.699
295.5000,-3.11463E+006,333.641
295.4000,-3.12245E+006,333.577
295.3000,-3.08E+006,333.539
295.2000,-2.96805E+006,333.489
295.1000,-2.90582E+006,333.429
295.0000,-3.17974E+006,333.397
294.9000,-3.43182E+006,333.352
294.8000,-3.5268E+006,333.298
294.7000,-3.52075E+006,333.27
294.6000,-3.5508E+006,333.245
294.5000,-3.71408E+006,333.204
294.4000,-3.88656E+006,333.173
294.3000,-4.13408E+006,333.146
294.2000,-4.17273E+006,333.105
294.1000,-4.11162E+006,333.078
294.0000,-3.97069E+006,333.058
293.9000,-4.02378E+006,333.017
293.8000,-4.16417E+006,332.992
293.7000,-4.19733E+006,332.97
293.6000,-4.25237E+006,332.926
293.5000,-4.36995E+006,332.874
293.4000,-4.40898E+006,332.852
293.3000,-4.38571E+006,332.813
293.2000,-4.56057E+006,332.759
293.1000,-4.47078E+006,332.733
293.0000,-4.32073E+006,332.692
292.9000,-4.12199E+006,332.647
292.8000,-3.91235E+006,332.629
292.7000,-3.74873E+006,332.61
292.6000,-3.64409E+006,332.576
292.5000,-3.46063E+006,332.53
292.4000,-3.16973E+006,332.51
292.3000,-3.22341E+006,332.473
292.2000,-3.43679E+006,332.43
292.1000,-3.39562E+006,332.412
292.0000,-3.49678E+006,332.373
291.9000,-3.43534E+006,332.325
291.8000,-3.28327E+006,332.281
291.7000,-3.30992E+006,332.261
291.6000,-3.46681E+006,332.221
291.5000,-3.41597E+006,332.177
291.4000,-3.1418E+006,332.155
291.3000,-3.22952E+006,332.106
291.2000,-3.25086E+006,332.045
291.1000,-3.24533E+006,331.983
291.0000,-3.33751E+006,331.94
290.9000,-3.40563E+006,331.874
290.8000,-3.39071E+006,331.792
290.7000,-3.46585E+006,331.704
290.6000,-3.59214E+006,331.608
290.5000,-3.7824E+006,331.49
290.4000,-3.73593E+006,331.37
290.3000,-3.57045E+006,331.267
290.2000,-3.63828E+006,331.137
290.1000,-3.74353E+006,330.994
290.0000,-3.98454E+006,330.86
289.9000,-4.19727E+006,330.763
289.8000,-4.28149E+006,330.672
289.7000,-4.26326E+006,330.606
289.6000,-4.18153E+006,330.577
289.5000,-4.46939E+006,330.581
289.4000,-4.7225E+006,330.61
289.3000,-4.7951E+006,330.673
289.2000,-4.99594E+006,330.759
289.1000,-4.96615E+006,330.871
289.0000,-4.88823E+006,330.979
288.9000,-4.78133E+006,331.089
288.8000,-4.99382E+006,331.187
288.7000,-5.15697E+006,331.276
288.6000,-5.01458E+006,331.347
288.5000,-4.71273E+006,331.402
288.4000,-4.31496E+006,331.445
288.3000,-4.06253E+006,331.472
288.2000,-4.28002E+006,331.476
288.1000,-4.2696E+006,331.469
288.0000,-4.15702E+006,331.453
287.9000,-4.07067E+006,331.424
287.8000,-3.95317E+006,331.407
287.7000,-4.01827E+006,331.388
287.6000,-4.17002E+006,331.371
287.5000,-4.2769E+006,331.342
287.4000,-4.11693E+006,331.332
287.3000,-3.91186E+006,331.325
287.2000,-3.85455E+006,331.317
287.1000,-3.81133E+006,331.308
287.0000,-3.88321E+006,331.276
286.9000,-4.07294E+006,331.256
286.8000,-3.91242E+006,331.246
286.7000,-3.77575E+006,331.235
286.6000,-3.82148E+006,331.207
286.5000,-3.83189E+006,331.199
286.4000,-3.94901E+006,331.196
286.3000,-3.79066E+006,331.198
286.2000,-3.93398E+006,331.199
286.1000,-3.84758E+006,331.194
286.0000,-3.84022E+006,331.199
285.9000,-4.0834E+006,331.195
285.8000,-4.20447E+006,331.196
285.7000,-4.26282E+006,331.177
285.6000,-4.39977E+006,331.157
285.5000,-4.26116E+006,331.161
285.4000,-4.16732E+006,331.168
285.3000,-4.17699E+006,331.179
285.2000,-4.35319E+006,331.159
285.1000,-4.36089E+006,331.15
285.0000,-4.22649E+006,331.166
284.9000,-4.29036E+006,331.17
284.8000,-4.16151E+006,331.182
284.7000,-4.41103E+006,331.163
284.6000,-4.80975E+006,331.147
284.5000,-4.75396E+006,331.156
284.4000,-4.65363E+006,331.167
284.3000,-4.70322E+006,331.185
284.2000,-4.70978E+006,331.173
284.1000,-4.84632E+006,331.172
284.0000,-4.8088E+006,331.16
283.9000,-4.57488E+006,331.174
283.8000,-4.04614E+006,331.197
283.7000,-3.81337E+006,331.196
283.6000,-3.77092E+006,331.196
283.5000,-3.58248E+006,331.196
283.4000,-3.44546E+006,331.202
283.3000,-3.11851E+006,331.225
283.2000,-2.97568E+006,331.248
283.1000,-3.00668E+006,331.26
283.0000,-3.06068E+006,331.255
282.9000,-2.98214E+006,331.253
282.8000,-2.69748E+006,331.252
282.7000,-2.51032E+006,331.268
282.6000,-2.35162E+006,331.288
282.5000,-2.18061E+006,331.293
282.4000,-1.94798E+006,331.292
282.3000,-1.92922E+006,331.289
282.2000,-1.90219E+006,331.291
282.1000,-2.05163E+006,331.315
282.0000,-2.0084E+006,331.34
281.9000,-2.14935E+006,331.35
281.8000,-2.26091E+006,331.353
281.7000,-2.66897E+006,331.352
281.6000,-3.04019E+006,331.356
281.5000,-3.37992E+006,331.36
281.4000,-3.69278E+006,331.38
281.3000,-3.84833E+006,331.387
281.2000,-4.05874E+006,331.387
281.1000,-4.06286E+006,331.388
281.0000,-4.08787E+006,331.388
280.9000,-3.99971E+006,331.389
280.8000,-3.89994E+006,331.392
280.7000,-3.94238E+006,331.394
280.6000,-3.76988E+006,331.407
280.5000,-3.68116E+006,331.412
280.4000,-3.89023E+006,331.411
280.3000,-4.11497E+006,331.408
280.2000,-4.13516E+006,331.405
280.1000,-4.00799E+006,331.403
280.0000,-4.08959E+006,331.399
279.9000,-4.06031E+006,331.398
279.8000,-3.97229E+006,331.383
279.7000,-3.89754E+006,331.38
279.6000,-3.54641E+006,331.38
279.5000,-3.42055E+006,331.382
279.4000,-3.42135E+006,331.384
279.3000,-3.48993E+006,331.385
279.2000,-3.48139E+006,331.39
279.1000,-3.32851E+006,331.396
279.0000,-3.34783E+006,331.402
278.9000,-3.26204E+006,331.399
278.8000,-3.54565E+006,331.407
278.7000,-3.66621E+006,331.421
278.6000,-3.72909E+006,331.435
278.5000,-4.003E+006,331.45
278.4000,-4.03993E+006,331.466
278.3000,-4.19508E+006,331.48
278.2000,-4.28077E+006,331.493
278.1000,-4.33508E+006,331.51
278.0000,-4.18254E+006,331.515
277.9000,-4.04263E+006,331.511
277.8000,-4.12389E+006,331.509
277.7000,-4.02961E+006,331.507
277.6000,-4.11004E+006,331.521
277.5000,-4.08138E+006,331.534
277.4000,-3.94489E+006,331.55
277.3000,-3.6924E+006,331.569
277.2000,-3.72908E+006,331.585
277.1000,-3.7753E+006,331.6
277.0000,-3.70001E+006,331.619
276.9000,-3.73142E+006,331.639
276.8000,-3.74144E+006,331.644
276.7000,-3.60141E+006,331.646
276.6000,-3.50202E+006,331.651
276.5000,-3.80492E+006,331.653
276.4000,-3.7301E+006,331.66
276.3000,-3.59497E+006,331.67
276.2000,-3.71787E+006,331.676
276.1000,-3.43111E+006,331.686
276.0000,-3.3753E+006,331.715
275.9000,-3.34273E+006,331.75
275.8000,-3.20867E+006,331.783
275.7000,-3.05521E+006,331.815
275.6000,-2.99637E+006,331.848
275.5000,-3.13388E+006,331.876
275.4000,-3.1282E+006,331.904
275.3000,-3.29941E+006,331.93
275.2000,-3.55039E+006,331.942
275.1000,-3.55697E+006,331.949
275.0000,-3.65441E+006,331.957
274.9000,-3.87999E+006,331.964
274.8000,-4.06691E+006,331.971
274.7000,-4.12894E+006,331.979
274.6000,-4.13756E+006,331.991
274.5000,-4.02782E+006,332.011
274.4000,-4.0214E+006,332.034
274.3000,-3.82972E+006,332.06
274.2000,-3.80649E+006,332.081
274.1000,-3.7265E+006,332.106
274.0000,-3.53477E+006,332.13
273.9000,-3.31041E+006,332.153
273.8000,-3.16475E+006,332.176
273.7000,-3.26168E+006,332.195
273.6000,-3.0216E+006,332.211
273.5000,-2.92818E+006,332.226
273.4000,-3.08922E+006,332.242
273.3000,-3.16738E+006,332.264
273.2000,-3.1529E+006,332.282
273.1000,-3.35948E+006,332.298
273.0000,-3.66185E+006,332.311
272.9000,-3.77271E+006,332.328
272.8000,-4.03314E+006,332.348
272.7000,-4.24368E+006,332.375
272.6000,-4.2288E+006,332.403
272.5000,-4.24909E+006,332.429
272.4000,-4.52018E+006,332.457
272.3000,-4.51978E+006,332.493
272.2000,-4.37113E+006,332.534
272.1000,-4.1731E+006,332.568
272.0000,-3.90277E+006,332.601
271.9000,-3.90686E+006,332.627
271.8000,-3.74519E+006,332.648
271.7000,-3.69434E+006,332.667
271.6000,-3.46755E+006,332.683
271.5000,-3.39921E+006,332.692
271.4000,-3.41514E+006,332.7
271.3000,-3.36359E+006,332.711
271.2000,-3.40269E+006,332.718
271.1000,-3.20543E+006,332.724
271.0000,-3.00456E+006,332.733
270.9000,-2.80835E+006,332.726
270.8000,-2.45675E+006,332.719
270.7000,-2.19877E+006,332.716
270.6000,-2.0583E+006,332.71
270.5000,-2.13113E+006,332.695
270.4000,-2.22198E+006,332.684
270.3000,-2.29026E+006,332.676
270.2000,-2.44115E+006,332.665
270.1000,-2.5167E+006,332.665
270.0000,-3.00844E+006,332.671
269.9000,-3.45209E+006,332.675
269.8000,-3.74785E+006,332.68
269.7000,-3.87808E+006,332.69
269.6000,-3.62809E+006,332.71
269.5000,-3.58317E+006,332.724
269.4000,-3.72649E+006,332.728
269.3000,-4.05201E+006,332.74
269.2000,-3.98862E+006,332.756
269.1000,-3.77375E+006,332.774
269.0000,-3.55837E+006,332.792
268.9000,-3.3628E+006,332.823
268.8000,-3.30193E+006,332.847
268.7000,-3.44978E+006,332.877
268.6000,-3.48357E+006,332.921
268.5000,-3.14146E+006,332.981
268.4000,-3.06405E+006,333.035
268.3000,-3.07683E+006,333.075
268.2000,-2.8776E+006,333.122
268.1000,-2.87483E+006,333.156
268.0000,-2.96472E+006,333.204
267.9000,-2.92811E+006,333.255
267.8000,-3.02822E+006,333.312
267.7000,-3.18661E+006,333.361
267.6000,-3.27387E+006,333.41
267.5000,-3.27284E+006,333.466
267.4000,-3.37612E+006,333.512
267.3000,-3.42856E+006,333.564
267.2000,-3.44607E+006,333.605
267.1000,-3.66719E+006,333.646
267.0000,-3.66444E+006,333.685
266.9000,-3.48735E+006,333.732
266.8000,-3.45446E+006,333.768
266.7000,-3.55685E+006,333.792
266.6000,-3.85122E+006,333.837
266.5000,-4.13232E+006,333.89
266.4000,-4.51652E+006,333.952
266.3000,-4.65008E+006,334.014
266.2000,-4.58668E+006,334.082
266.1000,-4.53137E+006,334.138
266.0000,-4.47605E+006,334.185
265.9000,-4.35703E+006,334.251
265.8000,-4.13274E+006,334.314
265.7000,-3.80311E+006,334.37
265.6000,-3.34246E+006,334.424
265.5000,-2.90385E+006,334.478
265.4000,-2.49074E+006,334.517
265.3000,-2.24174E+006,334.553
265.2000,-2.14863E+006,334.599
265.1000,-2.11281E+006,334.648
265.0000,-2.0889E+006,334.702
264.9000,-2.09523E+006,334.769
264.8000,-2.08619E+006,334.824
264.7000,-2.18928E+006,334.879
264.6000,-2.35592E+006,334.944
264.5000,-2.85746E+006,335.019
264.4000,-3.00969E+006,335.105
264.3000,-3.07195E+006,335.177
264.2000,-2.88939E+006,335.243
264.1000,-2.80336E+006,335.302
264.0000,-2.80144E+006,335.372
263.9000,-2.74057E+006,335.456
263.8000,-2.74721E+006,335.532
263.7000,-2.65254E+006,335.609
263.6000,-2.51642E+006,335.678
263.5000,-2.26609E+006,335.757
263.4000,-2.19952E+006,335.851
263.3000,-2.1621E+006,335.936
263.2000,-2.166E+006,336.015
263.1000,-2.01828E+006,336.095
263.0000,-1.952E+006,336.176
262.9000,-1.88152E+006,336.243
262.8000,-1.81336E+006,336.313
262.7000,-1.90008E+006,336.381
262.6000,-2.03005E+006,336.448
262.5000,-2.63874E+006,336.521
262.4000,-2.9101E+006,336.593
262.3000,-3.2402E+006,336.666
262.2000,-3.59194E+006,336.734
262.1000,-3.29605E+006,336.824
262.0000,-3.04054E+006,336.897
261.9000,-2.93141E+006,336.971
261.8000,-3.23204E+006,337.039
261.7000,-3.15743E+006,337.099
261.6000,-2.75175E+006,337.174
261.5000,-2.32695E+006,337.256
261.4000,-2.06516E+006,337.336
261.3000,-2.01874E+006,337.393
261.2000,-2.36795E+006,337.458
261.1000,-2.46422E+006,337.534
261.0000,-2.23954E+006,337.62
260.9000,-1.82561E+006,337.704
260.8000,-1.81271E+006,337.79
260.7000,-2.08052E+006,337.871
260.6000,-2.21323E+006,337.941
260.5000,-2.40552E+006,338.023
260.4000,-2.34469E+006,338.124
260.3000,-2.20003E+006,338.231
260.2000,-2.23651E+006,338.323
260.1000,-2.29454E+006,338.421
260.0000,-2.24759E+006,338.522
259.9000,-1.92864E+006,338.613
259.8000,-1.94454E+006,338.711
259.7000,-1.68219E+006,338.816
259.6000,-1.70426E+006,338.901
259.5000,-1.85399E+006,338.979
259.4000,-1.87732E+006,339.07
259.3000,-1.99515E+006,339.156
259.2000,-2.09569E+006,339.238
259.1000,-2.2758E+006,339.32
259.0000,-2.36422E+006,339.397
258.9000,-2.63116E+006,339.475
258.8000,-2.81939E+006,339.569
258.7000,-2.94423E+006,339.654
258.6000,-3.07295E+006,339.736
258.5000,-2.95971E+006,339.822
258.4000,-3.05105E+006,339.904
258.3000,-3.20341E+006,339.993
258.2000,-3.16382E+006,340.092
258.1000,-3.0233E+006,340.179
258.0000,-3.04359E+006,340.264
257.9000,-3.05394E+006,340.361
257.8000,-2.84152E+006,340.45
257.7000,-2.85817E+006,340.537
257.6000,-2.74892E+006,340.643
257.5000,-2.57314E+006,340.753
257.4000,-2.83534E+006,340.866
257.3000,-2.90837E+006,340.979
257.2000,-2.61436E+006,341.093
257.1000,-2.5585E+006,341.192
257.0000,-2.56756E+006,341.292
256.9000,-2.56932E+006,341.398
256.8000,-2.5849E+006,341.486
256.7000,-2.49644E+006,341.576
256.6000,-2.23298E+006,341.655
256.5000,-1.88078E+006,341.725
256.4000,-2.19555E+006,341.801
256.3000,-2.20374E+006,341.882
256.2000,-2.07046E+006,341.975
256.1000,-2.26043E+006,342.071
256.0000,-2.48502E+006,342.159
255.9000,-2.83695E+006,342.237
255.8000,-3.26064E+006,342.3
255.7000,-3.60911E+006,342.384
255.6000,-3.58739E+006,342.481
255.5000,-3.68752E+006,342.574
255.4000,-4.09739E+006,342.662
255.3000,-4.02554E+006,342.739
255.2000,-4.00438E+006,342.828
255.1000,-4.06605E+006,342.912
255.0000,-4.00669E+006,343.008
254.9000,-4.15511E+006,343.096
254.8000,-4.08612E+006,343.189
254.7000,-4.22326E+006,343.285
254.6000,-3.94314E+006,343.385
254.5000,-3.75417E+006,343.495
254.4000,-3.59918E+006,343.592
254.3000,-3.25965E+006,343.697
254.2000,-2.80011E+006,343.804
254.1000,-2.38287E+006,343.913
254.0000,-2.27208E+006,344.004
253.9000,-2.42057E+006,344.09
253.8000,-2.35243E+006,344.171
253.7000,-2.49922E+006,344.252
253.6000,-2.92906E+006,344.33
253.5000,-3.23992E+006,344.415
253.4000,-3.67096E+006,344.494
253.3000,-3.97124E+006,344.576
253.2000,-4.06744E+006,344.663
253.1000,-3.95221E+006,344.752
253.0000,-3.6835E+006,344.841
252.9000,-3.62236E+006,344.939
252.8000,-3.39688E+006,345.041
252.7000,-3.39655E+006,345.139
252.6000,-3.41618E+006,345.228
252.5000,-3.41134E+006,345.328
252.4000,-3.56346E+006,345.425
252.3000,-3.74447E+006,345.518
252.2000,-3.95824E+006,345.602
252.1000,-3.80577E+006,345.687
252.0000,-3.58766E+006,345.764
251.9000,-3.44902E+006,345.834
251.8000,-3.2704E+006,345.921
251.7000,-3.15211E+006,345.998
251.6000,-2.96484E+006,346.081
251.5000,-2.85338E+006,346.16
251.4000,-2.79589E+006,346.257
251.3000,-3.11253E+006,346.345
251.2000,-3.42375E+006,346.424
251.1000,-3.6807E+006,346.512
251.0000,-3.56922E+006,346.602
250.9000,-3.42855E+006,346.712
250.8000,-3.18513E+006,346.82
250.7000,-2.95856E+006,346.932
250.6000,-2.70068E+006,347.036
250.5000,-2.64144E+006,347.136
250.4000,-2.55704E+006,347.251
250.3000,-2.53693E+006,347.358
250.2000,-2.61041E+006,347.473
250.1000,-2.57506E+006,347.574
250.0000,-2.74628E+006,347.663
249.9000,-2.73948E+006,347.757
249.8000,-2.51647E+006,347.852
249.7000,-2.38937E+006,347.961
249.6000,-2.20841E+006,348.06
249.5000,-2.26539E+006,348.155
249.4000,-2.41734E+006,348.254
249.3000,-2.34885E+006,348.353
249.2000,-2.32003E+006,348.452
249.1000,-2.36889E+006,348.556
249.0000,-2.39047E+006,348.658
248.9000,-2.63898E+006,348.75
248.8000,-2.97699E+006,348.843
248.7000,-2.84295E+006,348.941
248.6000,-2.63212E+006,349.034
248.5000,-2.61496E+006,349.131
248.4000,-2.57934E+006,349.226
248.3000,-2.69069E+006,349.305
248.2000,-2.87623E+006,349.39
248.1000,-3.19624E+006,349.47
248.0000,-3.14498E+006,349.551
247.9000,-3.0584E+006,349.642
247.8000,-2.79409E+006,349.727
247.7000,-2.7591E+006,349.803
247.6000,-2.99661E+006,349.887
247.5000,-3.19875E+006,349.983
247.4000,-3.29731E+006,350.075
247.3000,-3.09919E+006,350.162
247.2000,-2.70438E+006,350.261
247.1000,-2.6278E+006,350.352
247.0000,-2.71181E+006,350.439
246.9000,-2.85112E+006,350.534
246.8000,-3.06466E+006,350.61
246.7000,-3.09549E+006,350.679
246.6000,-2.91606E+006,350.751
246.5000,-3.07216E+006,350.836
246.4000,-3.4367E+006,350.922
246.3000,-3.33262E+006,351.013
246.2000,-3.37298E+006,351.109
246.1000,-3.67778E+006,351.217
246.0000,-3.6376E+006,351.334
245.9000,-3.53833E+006,351.457
245.8000,-3.70935E+006,351.576
245.7000,-3.92263E+006,351.704
245.6000,-3.96946E+006,351.83
245.5000,-4.30011E+006,351.945
245.4000,-4.58561E+006,352.053
245.3000,-4.12651E+006,352.163
245.2000,-3.61566E+006,352.285
245.1000,-3.4184E+006,352.401
245.0000,-3.147E+006,352.515
244.9000,-2.90891E+006,352.622
244.8000,-2.55866E+006,352.725
244.7000,-2.40479E+006,352.834
244.6000,-2.324E+006,352.947
244.5000,-2.52114E+006,353.059
244.4000,-2.89401E+006,353.152
244.3000,-2.89652E+006,353.241
244.2000,-2.96821E+006,353.332
244.1000,-2.89766E+006,353.435
244.0000,-3.00216E+006,353.539
243.9000,-2.95232E+006,353.642
243.8000,-2.71647E+006,353.749
243.7000,-2.55199E+006,353.857
243.6000,-2.56444E+006,353.96
243.5000,-2.71825E+006,354.069
243.4000,-2.72647E+006,354.193
243.3000,-3.02909E+006,354.313
243.2000,-3.00764E+006,354.432
243.1000,-2.88097E+006,354.552
243.0000,-2.79852E+006,354.672
242.9000,-3.00477E+006,354.79
242.8000,-3.08737E+006,354.911
242.7000,-3.21702E+006,355.037
242.6000,-3.39642E+006,355.162
242.5000,-3.0299E+006,355.289
242.4000,-2.68474E+006,355.416
242.3000,-2.64505E+006,355.536
242.2000,-2.7034E+006,355.654
242.1000,-2.50209E+006,355.771
242.0000,-2.6572E+006,355.887
241.9000,-2.70383E+006,356.01
241.8000,-2.40798E+006,356.133
241.7000,-2.61313E+006,356.251
241.6000,-3.07177E+006,356.36
241.5000,-3.33158E+006,356.473
241.4000,-3.24947E+006,356.595
241.3000,-3.53319E+006,356.718
241.2000,-3.51204E+006,356.846
241.1000,-3.25794E+006,356.972
241.0000,-3.17242E+006,357.101
240.9000,-3.20246E+006,357.233
240.8000,-3.00968E+006,357.371
240.7000,-2.95194E+006,357.513
240.6000,-2.98222E+006,357.651
240.5000,-3.15671E+006,357.787
240.4000,-2.9618E+006,357.93
240.3000,-2.8748E+006,358.076
240.2000,-2.85491E+006,358.22
240.1000,-2.6731E+006,358.368
240.0000,-2.68606E+006,358.517
239.9000,-3.02018E+006,358.669
239.8000,-2.90937E+006,358.832
239.7000,-2.65922E+006,358.995
239.6000,-2.87477E+006,359.157
239.5000,-3.19081E+006,359.322
239.4000,-3.66741E+006,359.488
239.3000,-4.13345E+006,359.649
239.2000,-4.23717E+006,359.806
239.1000,-4.09112E+006,359.961
239.0000,-4.16566E+006,360.112
238.9000,-4.38354E+006,360.264
238.8000,-4.15782E+006,360.421
238.7000,-3.90772E+006,360.582
238.6000,-3.58963E+006,360.736
238.5000,-3.22307E+006,360.894
238.4000,-3.23633E+006,361.057
238.3000,-3.43622E+006,361.221
238.2000,-3.351E+006,361.395
238.1000,-3.3206E+006,361.573
238.0000,-3.30631E+006,361.749
237.9000,-3.44781E+006,361.922
237.8000,-3.31528E+006,362.096
237.7000,-3.14693E+006,362.274
237.6000,-3.09737E+006,362.452
237.5000,-2.95598E+006,362.63
237.4000,-3.28364E+006,362.8
237.3000,-3.48337E+006,362.971
237.2000,-3.62448E+006,363.144
237.1000,-3.53184E+006,363.315
237.0000,-3.57307E+006,363.488
236.9000,-3.71202E+006,363.667
236.8000,-3.60923E+006,363.85
236.7000,-3.4459E+006,364.038
236.6000,-3.23426E+006,364.224
236.5000,-3.06584E+006,364.413
236.4000,-3.14094E+006,364.6
236.3000,-3.34831E+006,364.789
236.2000,-3.56188E+006,364.975
236.1000,-3.56753E+006,365.155
236.0000,-3.7896E+006,365.334
235.9000,-3.94679E+006,365.524
235.8000,-3.90695E+006,365.727
235.7000,-4.1046E+006,365.918
235.6000,-4.16907E+006,366.105
235.5000,-4.32499E+006,366.292
235.4000,-4.46212E+006,366.489
235.3000,-4.39593E+006,366.693
235.2000,-4.63488E+006,366.893
235.1000,-4.72043E+006,367.085
235.0000,-4.7451E+006,367.267
234.9000,-4.90112E+006,367.453
234.8000,-4.68229E+006,367.658
234.7000,-4.33121E+006,367.869
234.6000,-4.01885E+006,368.07
234.5000,-4.20771E+006,368.269
234.4000,-4.2393E+006,368.476
234.3000,-4.33302E+006,368.681
234.2000,-4.62501E+006,368.889
234.1000,-4.61007E+006,369.107
234.0000,-4.45076E+006,369.315
233.9000,-4.50084E+006,369.517
233.8000,-4.54645E+006,369.725
233.7000,-4.22753E+006,369.939
233.6000,-4.13209E+006,370.154
233.5000,-3.91632E+006,370.375
233.4000,-3.58908E+006,370.588
233.3000,-3.44171E+006,370.802
233.2000,-3.38755E+006,371.024
233.1000,-3.30525E+006,371.245
233.0000,-3.23428E+006,371.474
232.9000,-3.54353E+006,371.694
232.8000,-3.5502E+006,371.917
232.7000,-3.62113E+006,372.143
232.6000,-3.84396E+006,372.371
232.5000,-3.86648E+006,372.605
232.4000,-4.19867E+006,372.826
232.3000,-4.74199E+006,373.049
232.2000,-5.12511E+006,373.264
232.1000,-5.16245E+006,373.488
232.0000,-5.21632E+006,373.709
231.9000,-5.61221E+006,373.923
231.8000,-5.42845E+006,374.137
231.7000,-5.16823E+006,374.352
231.6000,-5.03848E+006,374.57
231.5000,-4.37914E+006,374.788
231.4000,-4.14571E+006,375.009
231.3000,-4.14157E+006,375.223
231.2000,-4.44626E+006,375.437
231.1000,-4.23279E+006,375.655
231.0000,-3.72978E+006,375.878
230.9000,-3.67447E+006,376.106
230.8000,-3.35113E+006,376.331
230.7000,-3.52809E+006,376.561
230.6000,-3.6434E+006,376.791
230.5000,-3.50406E+006,377.032
230.4000,-3.34312E+006,377.273
230.3000,-3.04627E+006,377.522
230.2000,-3.47025E+006,377.764
230.1000,-4.09349E+006,378.008
230.0000,-4.59486E+006,378.251
229.9000,-4.92926E+006,378.488
229.8000,-4.90843E+006,378.731
229.7000,-5.26912E+006,378.96
229.6000,-5.32917E+006,379.185
229.5000,-5.53079E+006,379.402
229.4000,-5.44506E+006,379.613
229.3000,-5.08974E+006,379.822
229.2000,-5.53732E+006,380.02
229.1000,-5.65741E+006,380.222
229.0000,-5.55822E+006,380.43
228.9000,-5.12603E+006,380.647
228.8000,-5.12531E+006,380.863
228.7000,-5.38635E+006,381.093
228.6000,-5.48198E+006,381.334
228.5000,-5.70397E+006,381.582
228.4000,-5.47225E+006,381.85
228.3000,-5.39526E+006,382.125
228.2000,-5.53531E+006,382.398
228.1000,-6.03345E+006,382.678
228.0000,-6.12321E+006,382.963
227.9000,-6.01811E+006,383.243
227.8000,-5.99436E+006,383.517
227.7000,-5.87345E+006,383.797
227.6000,-5.85834E+006,384.067
227.5000,-5.34826E+006,384.334
227.4000,-5.51526E+006,384.593
227.3000,-5.50084E+006,384.853
227.2000,-5.76252E+006,385.107
227.1000,-6.21429E+006,385.364
227.0000,-6.57628E+006,385.618
226.9000,-6.72758E+006,385.87
226.8000,-7.33969E+006,386.12
226.7000,-7.42246E+006,386.376
226.6000,-7.20396E+006,386.634
226.5000,-6.71722E+006,386.888
226.4000,-6.70551E+006,387.134
226.3000,-6.79421E+006,387.378
226.2000,-6.63545E+006,387.631
226.1000,-6.55878E+006,387.881
226.0000,-6.13711E+006,388.128
225.9000,-6.06699E+006,388.374
225.8000,-6.07907E+006,388.622
225.7000,-6.30047E+006,388.875
225.6000,-6.10516E+006,389.135
225.5000,-5.43082E+006,389.402
225.4000,-5.12252E+006,389.664
225.3000,-5.03689E+006,389.932
225.2000,-4.90975E+006,390.207
225.1000,-5.18117E+006,390.475
225.0000,-5.74492E+006,390.738
224.9000,-6.31899E+006,390.996
224.8000,-6.51062E+006,391.253
224.7000,-6.62546E+006,391.512
224.6000,-7.04512E+006,391.769
224.5000,-7.24223E+006,392.023
224.4000,-7.61291E+006,392.269
224.3000,-7.34123E+006,392.523
224.2000,-7.29012E+006,392.777
224.1000,-6.80641E+006,393.039
224.0000,-6.76881E+006,393.299
223.9000,-7.07926E+006,393.556
223.8000,-6.92411E+006,393.815
223.7000,-6.97205E+006,394.072
223.6000,-6.80271E+006,394.333
223.5000,-7.12099E+006,394.589
223.4000,-6.96553E+006,394.849
223.3000,-6.48148E+006,395.102
223.2000,-6.18051E+006,395.352
223.1000,-5.72325E+006,395.603
223.0000,-5.5151E+006,395.853
222.9000,-4.95081E+006,396.106
222.8000,-4.45787E+006,396.356
222.7000,-3.87088E+006,396.608
222.6000,-3.64739E+006,396.853
222.5000,-3.85813E+006,397.103
222.4000,-4.3122E+006,397.345
222.3000,-4.44485E+006,397.593
222.2000,-4.57577E+006,397.84
222.1000,-4.85749E+006,398.083
222.0000,-4.84883E+006,398.332
221.9000,-4.72556E+006,398.572
221.8000,-4.80664E+006,398.813
221.7000,-5.37364E+006,399.051
221.6000,-5.3521E+006,399.296
221.5000,-5.16865E+006,399.544
221.4000,-5.34909E+006,399.782
221.3000,-5.47619E+006,400.026
221.2000,-5.53201E+006,400.27
221.1000,-5.59619E+006,400.516
221.0000,-5.36938E+006,400.764
220.9000,-4.98611E+006,401.01
220.8000,-4.78604E+006,401.258
220.7000,-5.2302E+006,401.495
220.6000,-5.37259E+006,401.737
220.5000,-5.76652E+006,401.979
220.4000,-6.00789E+006,402.214
220.3000,-6.46957E+006,402.454
220.2000,-6.96063E+006,402.699
220.1000,-7.3477E+006,402.942
220.0000,-7.241E+006,403.19
219.9000,-6.98886E+006,403.443
219.8000,-6.97161E+006,403.691
219.7000,-6.77889E+006,403.941
219.6000,-6.34099E+006,404.192
219.5000,-6.20808E+006,404.443
219.4000,-6.1419E+006,404.695
219.3000,-6.00944E+006,404.946
219.2000,-5.78158E+006,405.2
219.1000,-5.98801E+006,405.445
219.0000,-6.13322E+006,405.694
218.9000,-5.87246E+006,405.944
218.8000,-5.51869E+006,406.197
218.7000,-5.53245E+006,406.443
218.6000,-5.46706E+006,406.685
218.5000,-5.6953E+006,406.921
218.4000,-6.14675E+006,407.161
218.3000,-6.67257E+006,407.397
218.2000,-6.49758E+006,407.645
218.1000,-6.66668E+006,407.889
218.0000,-7.30216E+006,408.134
217.9000,-7.80552E+006,408.38
217.8000,-8.07608E+006,408.621
217.7000,-8.45917E+006,408.869
217.6000,-8.81826E+006,409.114
217.5000,-8.89644E+006,409.37
217.4000,-9.46795E+006,409.614
217.3000,-9.6817E+006,409.86
217.2000,-9.73008E+006,410.111
217.1000,-9.1767E+006,410.366
217.0000,-8.91036E+006,410.622
216.9000,-8.70654E+006,410.878
216.8000,-8.73316E+006,411.132
216.7000,-8.53044E+006,411.381
216.6000,-7.9756E+006,411.635
216.5000,-7.96175E+006,411.888
216.4000,-8.31353E+006,412.134
216.3000,-8.76802E+006,412.375
216.2000,-8.76046E+006,412.627
216.1000,-8.75402E+006,412.878
216.0000,-8.41714E+006,413.133
215.9000,-8.37638E+006,413.387
215.8000,-8.32088E+006,413.643
215.7000,-8.07537E+006,413.905
215.6000,-8.11248E+006,414.167
215.5000,-7.52593E+006,414.438
215.4000,-7.51423E+006,414.701
215.3000,-7.18832E+006,414.968
215.2000,-6.78817E+006,415.233
215.1000,-6.08913E+006,415.51
215.0000,-6.22706E+006,415.779
214.9000,-6.68185E+006,416.047
214.8000,-6.49594E+006,416.317
214.7000,-6.56365E+006,416.585
214.6000,-6.87694E+006,416.853
214.5000,-7.19391E+006,417.122
214.4000,-6.8626E+006,417.402
214.3000,-7.11786E+006,417.676
214.2000,-6.91544E+006,417.952
214.1000,-6.82367E+006,418.227
214.0000,-6.30615E+006,418.506
213.9000,-5.89207E+006,418.788
213.8000,-5.77871E+006,419.068
213.7000,-5.45791E+006,419.353
213.6000,-5.90237E+006,419.63
213.5000,-6.16549E+006,419.911
213.4000,-5.94257E+006,420.199
213.3000,-5.1182E+006,420.496
213.2000,-5.11973E+006,420.788
213.1000,-4.81906E+006,421.086
213.0000,-4.85032E+006,421.383
212.9000,-4.97041E+006,421.682
212.8000,-4.91277E+006,421.977
212.7000,-5.60214E+006,422.268
212.6000,-5.98274E+006,422.562
212.5000,-6.34147E+006,422.859
212.4000,-6.34241E+006,423.162
212.3000,-5.86957E+006,423.464
212.2000,-5.54901E+006,423.767
212.1000,-4.99E+006,424.076
212.0000,-5.01403E+006,424.391
211.9000,-4.27743E+006,424.717
211.8000,-4.35806E+006,425.032
211.7000,-4.44005E+006,425.347
211.6000,-5.10323E+006,425.661
211.5000,-5.7677E+006,425.976
211.4000,-6.64733E+006,426.293
211.3000,-7.26366E+006,426.614
211.2000,-6.90203E+006,426.939
211.1000,-6.95673E+006,427.261
211.0000,-6.58524E+006,427.596
210.9000,-6.44574E+006,427.931
210.8000,-6.31663E+006,428.267
210.7000,-6.14337E+006,428.613
210.6000,-5.37026E+006,428.963
210.5000,-4.32206E+006,429.321
210.4000,-4.12233E+006,429.674
210.3000,-3.80568E+006,430.033
210.2000,-3.07748E+006,430.392
210.1000,-2.50562E+006,430.754
210.0000,-2.40985E+006,431.112
209.9000,-2.27298E+006,431.47
209.8000,-2.47188E+006,431.824
209.7000,-3.16149E+006,432.177
209.6000,-4.05833E+006,432.528
209.5000,-4.54417E+006,432.889
209.4000,-5.38456E+006,433.248
209.3000,-6.14346E+006,433.608
209.2000,-6.38762E+006,433.978
209.1000,-6.29968E+006,434.352
209.0000,-6.55125E+006,434.723
208.9000,-7.00257E+006,435.097
208.8000,-7.77166E+006,435.467
208.7000,-7.87896E+006,435.843
208.6000,-8.00444E+006,436.228
208.5000,-7.9014E+006,436.617
208.4000,-7.77697E+006,437.003
208.3000,-7.46032E+006,437.397
208.2000,-6.51284E+006,437.799
208.1000,-5.33919E+006,438.205
208.0000,-4.04907E+006,438.612
207.9000,-2.91902E+006,439.02
207.8000,-2.43643E+006,439.425
207.7000,-2.03524E+006,439.824
207.6000,-1.96275E+006,440.227
207.5000,-2.01126E+006,440.623
207.4000,-2.03334E+006,441.02
207.3000,-2.99762E+006,441.414
207.2000,-3.51758E+006,441.816
207.1000,-4.13307E+006,442.215
207.0000,-5.20742E+006,442.609
206.9000,-6.13902E+006,443.01
206.8000,-6.92819E+006,443.414
206.7000,-6.54079E+006,443.831
206.6000,-6.74428E+006,444.244
206.5000,-6.67603E+006,444.661
206.4000,-6.17292E+006,445.083
206.3000,-5.48072E+006,445.513
206.2000,-4.85502E+006,445.943
206.1000,-3.77215E+006,446.375
206.0000,-1.9853E+006,446.815
205.9000,-1.21085E+006,447.248
205.8000,-1.21887E+006,447.677
205.7000,-1.03047E+006,448.112
205.6000,-788045,448.548
205.5000,-991439,448.984
205.4000,-868750,449.422
205.3000,-1.33271E+006,449.859
205.2000,-2.34579E+006,450.298
205.1000,-3.21403E+006,450.741
205.0000,-3.75669E+006,451.185
204.9000,-3.5173E+006,451.642
204.8000,-3.23197E+006,452.103
204.7000,-3.38225E+006,452.569
204.6000,-3.27658E+006,453.04
204.5000,-3.22997E+006,453.511
204.4000,-2.95726E+006,453.985
204.3000,-2.5754E+006,454.465
204.2000,-2.49413E+006,454.948
204.1000,-1.84424E+006,455.433
204.0000,-1.06195E+006,455.923
203.9000,-1.08857E+006,456.402
203.8000,-1.87979E+006,456.878
203.7000,-2.86318E+006,457.356
203.6000,-3.98752E+006,457.84
203.5000,-4.54281E+006,458.329
203.4000,-4.36875E+006,458.829
203.3000,-4.47855E+006,459.336
203.2000,-5.5902E+006,459.839
203.1000,-6.85695E+006,460.345
203.0000,-6.5598E+006,460.867
202.9000,-5.39838E+006,461.399
202.8000,-3.77952E+006,461.933
202.7000,-3.73812E+006,462.461
202.6000,-3.12071E+006,462.997
202.5000,-3.28797E+006,463.525
202.4000,-3.12392E+006,464.056
202.3000,-2.1139E+006,464.6
202.2000,-1.24773E+006,465.146
202.1000,-1.27391E+006,465.688
202.0000,-2.70241E+006,466.23
201.9000,-2.54913E+006,466.792
201.8000,-2.55396E+006,467.355
201.7000,-2.29766E+006,467.931
201.6000,-1.62145E+006,468.517
201.5000,-1.19994E+006,469.109
201.4000,-1.28029E+006,469.703
201.3000,-1.56547E+006,470.306
201.2000,-703228,470.925
201.1000,39381.3,471.551
201.0000,544737,472.182
200.9000,820307,472.819
200.8000,769399,473.463
200.7000,256316,474.116
200.6000,-89647.8,474.786
200.5000,705105,475.478
200.4000,926667,476.184
200.3000,1.40783E+006,476.908
200.2000,2.13136E+006,477.643
200.1000,2.32808E+006,478.382
200.0000,2.3956E+006,479.126
199.9000,2.89008E+006,479.878
199.8000,3.89438E+006,480.636
199.7000,4.81824E+006,481.388
199.6000,5.15182E+006,482.135
199.5000,5.45917E+006,482.882
199.4000,6.27687E+006,483.635
199.3000,7.05574E+006,484.39
199.2000,8.6518E+006,485.159
199.1000,8.46667E+006,485.926
199.0000,8.34815E+006,486.7
198.9000,7.83265E+006,487.485
198.8000,8.03776E+006,488.29
198.7000,7.85329E+006,489.117
198.6000,6.22982E+006,489.952
198.5000,5.01117E+006,490.813
198.4000,3.3358E+006,491.685
198.3000,3.40693E+006,492.58
198.2000,3.2229E+006,493.496
198.1000,3.05535E+006,494.44
198.0000,2.46898E+006,495.405
197.9000,2.24303E+006,496.382
197.8000,3.15779E+006,497.377
197.7000,3.04378E+006,498.378
197.6000,3.4434E+006,499.398
197.5000,3.43269E+006,500.427
197.4000,4.06071E+006,501.463
197.3000,5.9776E+006,502.499
197.2000,6.49071E+006,503.492
197.1000,7.64029E+006,504.461
197.0000,7.75686E+006,505.405
196.9000,7.69221E+006,506.333
196.8000,7.23655E+006,507.251
196.7000,5.95393E+006,508.158
196.6000,4.92633E+006,509.082
196.5000,2.39248E+006,510.021
196.4000,1.37855E+006,511.027
196.3000,472697,512.096
196.2000,-98290.7,513.232
196.1000,-325658,514.436
196.0000,13803,515.711
195.9000,1.23868E+006,517.079
195.8000,3.27653E+006,518.552
195.7000,5.33313E+006,520.135
195.6000,5.61247E+006,521.812
195.5000,6.66378E+006,523.617
195.4000,8.03951E+006,525.53
195.3000,9.7775E+006,527.534
195.2000,1.07531E+007,529.601
195.1000,1.13636E+007,531.708
195.0000,1.06462E+007,533.772
194.9000,8.41973E+006,535.738
194.8000,7.68898E+006,537.59
194.7000,7.69997E+006,539.3
194.6000,7.43215E+006,540.888
194.5000,7.20812E+006,542.373
194.4000,7.95504E+006,543.797
194.3000,9.1264E+006,545.178
194.2000,9.60587E+006,546.587
194.1000,7.98972E+006,548.085
194.0000,7.50921E+006,549.77
193.9000,5.57318E+006,551.668
193.8000,5.25291E+006,553.818
193.7000,5.33619E+006,556.27
193.6000,4.58718E+006,559.011
193.5000,3.75248E+006,562.097
193.4000,4.09439E+006,565.576
193.3000,5.29307E+006,569.46
193.2000,7.09824E+006,573.728
193.1000,8.99867E+006,578.334
193.0000,9.09071E+006,583.205
192.9000,1.0155E+007,588.266
192.8000,1.03195E+007,593.395
192.7000,1.12756E+007,598.451
192.6000,8.97549E+006,603.173
192.5000,1.02005E+007,607.466
192.4000,1.28641E+007,611.295
192.3000,1.22712E+007,614.648
192.2000,1.45861E+007,617.612
192.1000,1.61449E+007,620.218
192.0000,1.9843E+007,622.619
191.9000,2.28802E+007,624.971
191.8000,2.55857E+007,627.527
191.7000,2.55125E+007,630.53
191.6000,2.22146E+007,634.094
191.5000,1.86357E+007,638.277
191.4000,1.49969E+007,643.092
191.3000,1.02744E+007,648.64
191.2000,3.64679E+006,654.945
191.1000,-6.42714E+006,662.021
191.0000,-1.24135E+007,669.891
190.9000,-1.24437E+007,678.464
190.8000,-7.23837E+006,687.67
190.7000,-6.63236E+006,697.297
190.6000,-2.35187E+006,707.301
190.5000,-1.25089E+006,717.414
190.4000,-1.27222E+006,727.287
190.3000,6.03854E+006,736.726
190.2000,1.43776E+007,745.53
190.1000,9.43764E+006,753.547
190.0000,-5.29011E+006,760.81

##### Extended Information
[Comments]
Sample name,ACE2_Cal_0.6uM
Comment
User
Division
Company,CSIR-IMTECH

[Detailed Information]
Creation date,4/9/2024 4:30 PM

Data array type,Linear data array * 2
Horizontal axis,Wavelength [nm]
Vertical axis(1),Mol. Ellip.
Vertical axis(2),HT [V]
Start,350 nm
End,190 nm
Data interval,0.1 nm
Data points,1601    

[Measurement Information]
Instrument Name,JASCO CD
Model Name,J-815
Serial No.,B063061168

Accessory,PTC-423S
Accessory S/N,C013945-01
  Temperature,36.78 C
  Control Sonsor,Cell
  Monitor Sensor,Cell
  Start Mode,Start immediately
  Cell Length,10 mm

Measurement date,4/9/2024 4:29 PM

Photometric Mode,CD, HT
Measure Range,350 - 190 nm
Data pitch,0.1 nm
Sensitivity,Standard
D.I.T.,1 sec
Bandwidth,1.00 nm
Start Mode,Immediately
Scanning Speed,50 nm/min
Baseline Correction,None
Shutter Control,Auto
CD Detector,PMT
PMT Voltage,Auto
Accumulations,3
Concentration,0.27 umol/L

