TITLE	Erg_0.8uM
DATA TYPE	
ORIGIN	JASCO
OWNER	
DATE	24/04/09
TIME	13:32:44
SPECTROMETER/DATA SYSTEM	
LOCALE	1033
RESOLUTION	
DELTAX	-0.1
XUNITS	NANOMETERS
YUNITS	Mol. Ellip.
Y2UNITS	HT [V]
FIRSTX	  350.0000
LASTX	  190.0000
NPOINTS	    1601
FIRSTY	-619980.00000
MAXY	1041534.31250
MINY	-1827541.50000
XYDATA
350.0000	-619980	484.366
349.9000	-927320	483.721
349.8000	-1.21981E+006	482.799
349.7000	-1.55014E+006	481.864
349.6000	-1.73602E+006	481.197
349.5000	-1.68849E+006	480.624
349.4000	-1.76392E+006	479.722
349.3000	-1.39178E+006	479.094
349.2000	-1.15146E+006	478.569
349.1000	-860036	477.741
349.0000	-771601	477.11
348.9000	-695915	476.548
348.8000	-750280	475.657
348.7000	-741462	474.753
348.6000	-1.0422E+006	474.091
348.5000	-1.20779E+006	473.517
348.4000	-1.2327E+006	472.624
348.3000	-993991	471.961
348.2000	-812480	471.374
348.1000	-772996	470.491
348.0000	-637346	469.842
347.9000	-890150	469.277
347.8000	-962696	468.439
347.7000	-1.13912E+006	467.585
347.6000	-1.32523E+006	466.975
347.5000	-1.28888E+006	466.465
347.4000	-1.16011E+006	465.655
347.3000	-955878	465.051
347.2000	-985396	464.529
347.1000	-592786	463.754
347.0000	-291522	463.176
346.9000	-126848	462.672
346.8000	44032.9	461.884
346.7000	-75865.5	461.07
346.6000	-321961	460.467
346.5000	-425045	459.698
346.4000	-448564	458.918
346.3000	-516937	458.317
346.2000	-749375	457.524
346.1000	-509852	456.728
346.0000	-334980	456.143
345.9000	-292665	455.639
345.8000	-369348	454.858
345.7000	-268569	454.28
345.6000	-124626	453.789
345.5000	-97088	453.051
345.4000	211796	452.519
345.3000	162105	452.061
345.2000	-101640	451.341
345.1000	-392391	450.612
345.0000	-493385	450.077
344.9000	-629688	449.397
344.8000	-914276	448.697
344.7000	-1.13902E+006	448.168
344.6000	-1.40196E+006	447.487
344.5000	-1.6857E+006	446.797
344.4000	-1.82754E+006	446.286
344.3000	-1.7072E+006	445.611
344.2000	-1.25691E+006	444.933
344.1000	-1.02653E+006	444.41
344.0000	-1.01076E+006	443.739
343.9000	-882691	443.066
343.8000	-917216	442.572
343.7000	-672841	442.151
343.6000	-441044	441.489
343.5000	-237727	441.012
343.4000	-400283	440.601
343.3000	-430733	439.975
343.2000	-503797	439.515
343.1000	-642441	439.111
343.0000	-638849	438.499
342.9000	-501221	437.882
342.8000	-627965	437.422
342.7000	-699055	436.799
342.6000	-704741	436.168
342.5000	-661991	435.691
342.4000	-464656	435.097
342.3000	-43900.9	434.5
342.2000	111486	434.043
342.1000	49888.5	433.45
342.0000	89853.8	432.856
341.9000	295729	432.443
341.8000	287901	431.88
341.7000	289621	431.308
341.6000	179794	430.874
341.5000	36327.3	430.323
341.4000	-168628	429.768
341.3000	-216278	429.352
341.2000	-269107	428.776
341.1000	-399689	428.181
341.0000	-597609	427.741
340.9000	-610675	427.194
340.8000	-418429	426.641
340.7000	-459469	426.206
340.6000	-373502	425.658
340.5000	-394971	425.102
340.4000	-472275	424.698
340.3000	-305665	424.165
340.2000	-100522	423.626
340.1000	-28259.4	423.218
340.0000	-16750.4	422.715
339.9000	-87270.2	422.208
339.8000	-98654.5	421.828
339.7000	-150069	421.345
339.6000	-244791	420.855
339.5000	-340349	420.518
339.4000	-546635	420.049
339.3000	-609711	419.566
339.2000	-672330	419.038
339.1000	-664230	418.562
339.0000	-516364	418.077
338.9000	-445646	417.528
338.8000	-474561	417.02
338.7000	-426300	416.508
338.6000	-508297	415.959
338.5000	-543512	415.48
338.4000	-647761	415.119
338.3000	-850096	414.666
338.2000	-1.05457E+006	414.208
338.1000	-1.18471E+006	413.884
338.0000	-1.0819E+006	413.45
337.9000	-1.08919E+006	413.008
337.8000	-1.07563E+006	412.696
337.7000	-830638	412.305
337.6000	-803907	411.898
337.5000	-691530	411.589
337.4000	-579217	411.187
337.3000	-562162	410.766
337.2000	-293672	410.31
337.1000	-143173	409.904
337.0000	-17788	409.49
336.9000	-54187.9	409.03
336.8000	-50424	408.621
336.7000	-50327.4	408.209
336.6000	-160935	407.75
336.5000	-332106	407.327
336.4000	-512852	407.022
336.3000	-652557	406.609
336.2000	-832103	406.184
336.1000	-1.08331E+006	405.865
336.0000	-1.29504E+006	405.469
335.9000	-1.46857E+006	405.055
335.8000	-1.34352E+006	404.61
335.7000	-1.10461E+006	404.217
335.6000	-964094	403.818
335.5000	-978254	403.404
335.4000	-876492	403.047
335.3000	-680379	402.693
335.2000	-406427	402.309
335.1000	-403247	401.966
335.0000	-375350	401.733
334.9000	-577182	401.394
334.8000	-776658	401.041
334.7000	-709487	400.669
334.6000	-771688	400.337
334.5000	-848039	399.996
334.4000	-894894	399.596
334.3000	-798400	399.231
334.2000	-681511	398.857
334.1000	-546742	398.461
334.0000	-377906	398.117
333.9000	-346685	397.863
333.8000	-136756	397.527
333.7000	-17426.9	397.181
333.6000	-105138	396.8
333.5000	-137122	396.473
333.4000	-252141	396.139
333.3000	-325735	395.787
333.2000	-400696	395.478
333.1000	-569312	395.158
333.0000	-795740	394.819
332.9000	-918937	394.518
332.8000	-907745	394.176
332.7000	-798894	393.879
332.6000	-661893	393.576
332.5000	-520277	393.25
332.4000	-442813	392.96
332.3000	-263003	392.666
332.2000	-148594	392.314
332.1000	-122940	391.985
332.0000	8958.08	391.641
331.9000	-104144	391.336
331.8000	-212162	391.03
331.7000	-203563	390.689
331.6000	-337854	390.369
331.5000	-277819	389.936
331.4000	-296063	389.597
331.3000	-192991	389.308
331.2000	-230251	388.991
331.1000	-111343	388.718
331.0000	26622.7	388.438
330.9000	2672.73	388.139
330.8000	-5883.63	387.877
330.7000	-6593.17	387.577
330.6000	49334.1	387.318
330.5000	44495.8	387.052
330.4000	-55549.7	386.754
330.3000	-159126	386.49
330.2000	-248379	386.119
330.1000	-350311	385.816
330.0000	-325689	385.547
329.9000	-447104	385.249
329.8000	-562891	384.988
329.7000	-737147	384.641
329.6000	-710262	384.375
329.5000	-577309	384.146
329.4000	-445142	383.854
329.3000	-337321	383.592
329.2000	-293709	383.229
329.1000	-357917	382.942
329.0000	-319982	382.695
328.9000	-363950	382.407
328.8000	-394637	382.146
328.7000	-307271	381.796
328.6000	-494445	381.533
328.5000	-680655	381.316
328.4000	-716998	381.052
328.3000	-605288	380.821
328.2000	-548012	380.532
328.1000	-468891	380.315
328.0000	-304477	380.132
327.9000	-339699	379.864
327.8000	-296953	379.623
327.7000	-209628	379.376
327.6000	-116369	379.219
327.5000	-208358	379.1
327.4000	-210657	378.823
327.3000	-351083	378.545
327.2000	-448371	378.23
327.1000	-625752	378.014
327.0000	-727483	377.849
326.9000	-751171	377.561
326.8000	-819693	377.256
326.7000	-773146	376.926
326.6000	-907565	376.732
326.5000	-1.00575E+006	376.61
326.4000	-1.01453E+006	376.346
326.3000	-1.00329E+006	376.081
326.2000	-1.10116E+006	375.813
326.1000	-1.13423E+006	375.64
326.0000	-988438	375.347
325.9000	-1.04971E+006	375.063
325.8000	-1.02238E+006	374.784
325.7000	-995325	374.521
325.6000	-974519	374.381
325.5000	-941288	374.096
325.4000	-787554	373.807
325.3000	-673008	373.51
325.2000	-647503	373.347
325.1000	-685318	373.245
325.0000	-725812	372.968
324.9000	-652702	372.676
324.8000	-634447	372.376
324.7000	-621526	372.229
324.6000	-791247	372.154
324.5000	-898876	371.886
324.4000	-942664	371.605
324.3000	-988756	371.344
324.2000	-1.04311E+006	371.204
324.1000	-1.15735E+006	370.938
324.0000	-1.19437E+006	370.666
323.9000	-1.1016E+006	370.385
323.8000	-919272	370.125
323.7000	-755036	369.997
323.6000	-842498	369.727
323.5000	-987045	369.427
323.4000	-1.08207E+006	369.142
323.3000	-1.11106E+006	368.999
323.2000	-1.07702E+006	368.92
323.1000	-1.04818E+006	368.669
323.0000	-1.12944E+006	368.392
322.9000	-1.1528E+006	368.118
322.8000	-1.08441E+006	367.987
322.7000	-875637	367.742
322.6000	-717654	367.457
322.5000	-599017	367.171
322.4000	-569721	366.884
322.3000	-606566	366.704
322.2000	-498479	366.395
322.1000	-427607	366.06
322.0000	-372696	365.743
321.9000	-365959	365.565
321.8000	-463500	365.281
321.7000	-430554	364.986
321.6000	-380116	364.678
321.5000	-432427	364.399
321.4000	-581852	364.265
321.3000	-675877	364.074
321.2000	-812734	363.871
321.1000	-931418	363.663
321.0000	-1.08814E+006	363.593
320.9000	-1.14603E+006	363.442
320.8000	-1.20937E+006	363.29
320.7000	-1.18658E+006	363.154
320.6000	-1.10233E+006	363.012
320.5000	-1.04124E+006	362.968
320.4000	-1.08975E+006	362.795
320.3000	-1.05553E+006	362.611
320.2000	-1.01801E+006	362.441
320.1000	-982287	362.38
320.0000	-920352	362.221
319.9000	-846311	362.036
319.8000	-818417	361.839
319.7000	-862794	361.633
319.6000	-851200	361.421
319.5000	-819448	361.267
319.4000	-822460	361.09
319.3000	-794360	360.879
319.2000	-893458	360.769
319.1000	-1.01955E+006	360.558
319.0000	-1.0209E+006	360.337
318.9000	-1.02716E+006	360.122
318.8000	-1.07107E+006	359.998
318.7000	-1.1347E+006	359.765
318.6000	-1.22259E+006	359.521
318.5000	-1.26441E+006	359.314
318.4000	-1.19667E+006	359.11
318.3000	-1.08238E+006	358.907
318.2000	-1.05702E+006	358.758
318.1000	-1.01447E+006	358.603
318.0000	-927659	358.422
317.9000	-765488	358.352
317.8000	-645416	358.229
317.7000	-516519	358.087
317.6000	-411876	357.908
317.5000	-324075	357.807
317.4000	-325703	357.637
317.3000	-341423	357.457
317.2000	-347468	357.265
317.1000	-392777	357.072
317.0000	-478794	356.816
316.9000	-532499	356.596
316.8000	-656952	356.398
316.7000	-742759	356.204
316.6000	-860564	356.008
316.5000	-915424	355.847
316.4000	-877398	355.672
316.3000	-927216	355.494
316.2000	-984807	355.33
316.1000	-1.00028E+006	355.217
316.0000	-964010	355.105
315.9000	-974517	354.947
315.8000	-900712	354.844
315.7000	-771097	354.678
315.6000	-658424	354.534
315.5000	-557500	354.37
315.4000	-458784	354.262
315.3000	-416255	354.061
315.2000	-353446	353.851
315.1000	-285388	353.657
315.0000	-301408	353.469
314.9000	-387713	353.274
314.8000	-526979	353.107
314.7000	-666471	352.935
314.6000	-782261	352.768
314.5000	-786725	352.616
314.4000	-898824	352.505
314.3000	-919652	352.367
314.2000	-956008	352.229
314.1000	-883147	352.051
314.0000	-777700	351.895
313.9000	-748556	351.731
313.8000	-663966	351.573
313.7000	-497135	351.355
313.6000	-310763	351.155
313.5000	-343881	350.963
313.4000	-401117	350.779
313.3000	-374442	350.609
313.2000	-491919	350.464
313.1000	-594948	350.312
313.0000	-688116	350.162
312.9000	-808601	350.026
312.8000	-874308	349.928
312.7000	-815973	349.797
312.6000	-715444	349.667
312.5000	-719455	349.503
312.4000	-724182	349.351
312.3000	-681266	349.174
312.2000	-688595	348.997
312.1000	-673144	348.774
312.0000	-774105	348.564
311.9000	-859908	348.36
311.8000	-869356	348.132
311.7000	-821131	347.95
311.6000	-766523	347.759
311.5000	-698469	347.607
311.4000	-700832	347.416
311.3000	-631161	347.294
311.2000	-542324	347.166
311.1000	-515141	347.066
311.0000	-588256	346.953
310.9000	-635452	346.858
310.8000	-611787	346.749
310.7000	-626881	346.653
310.6000	-667600	346.525
310.5000	-712214	346.414
310.4000	-772278	346.306
310.3000	-784030	346.211
310.2000	-791367	346.121
310.1000	-805988	346.051
310.0000	-857066	345.978
309.9000	-1.00889E+006	345.914
309.8000	-1.00873E+006	345.851
309.7000	-957990	345.758
309.6000	-869034	345.688
309.5000	-826990	345.581
309.4000	-688702	345.495
309.3000	-587734	345.355
309.2000	-544813	345.234
309.1000	-433300	345.063
309.0000	-306615	344.921
308.9000	-279499	344.789
308.8000	-302382	344.67
308.7000	-320669	344.566
308.6000	-473407	344.471
308.5000	-643386	344.363
308.4000	-770504	344.25
308.3000	-841591	344.179
308.2000	-887751	344.069
308.1000	-957869	343.988
308.0000	-1.0121E+006	343.893
307.9000	-1.11202E+006	343.805
307.8000	-1.07305E+006	343.666
307.7000	-941664	343.563
307.6000	-790046	343.451
307.5000	-701178	343.288
307.4000	-745420	343.164
307.3000	-705874	343.052
307.2000	-663762	342.961
307.1000	-581906	342.829
307.0000	-475133	342.738
306.9000	-390676	342.644
306.8000	-448219	342.576
306.7000	-503119	342.507
306.6000	-512629	342.423
306.5000	-517054	342.346
306.4000	-545634	342.215
306.3000	-515768	342.118
306.2000	-497922	341.995
306.1000	-585671	341.884
306.0000	-683529	341.734
305.9000	-708050	341.625
305.8000	-784667	341.543
305.7000	-778062	341.421
305.6000	-703700	341.339
305.5000	-707961	341.262
305.4000	-735181	341.217
305.3000	-757248	341.123
305.2000	-703687	341.058
305.1000	-693424	340.986
305.0000	-595300	340.864
304.9000	-544460	340.785
304.8000	-617045	340.683
304.7000	-694656	340.589
304.6000	-732091	340.451
304.5000	-756727	340.346
304.4000	-780090	340.265
304.3000	-714823	340.15
304.2000	-740006	340.081
304.1000	-813717	340.02
304.0000	-849576	339.987
303.9000	-825157	339.901
303.8000	-836570	339.829
303.7000	-913593	339.778
303.6000	-953692	339.674
303.5000	-992174	339.605
303.4000	-991142	339.524
303.3000	-923173	339.412
303.2000	-910301	339.297
303.1000	-843243	339.215
303.0000	-770058	339.169
302.9000	-694822	339.076
302.8000	-620918	339.007
302.7000	-698818	338.952
302.6000	-659250	338.867
302.5000	-685750	338.818
302.4000	-705429	338.763
302.3000	-763818	338.665
302.2000	-829179	338.569
302.1000	-878587	338.477
302.0000	-925367	338.413
301.9000	-882429	338.323
301.8000	-890972	338.248
301.7000	-914300	338.189
301.6000	-884331	338.101
301.5000	-826197	338.052
301.4000	-803037	338.007
301.3000	-825873	337.93
301.2000	-793189	337.864
301.1000	-808421	337.802
301.0000	-782477	337.77
300.9000	-798542	337.693
300.8000	-867392	337.614
300.7000	-914068	337.547
300.6000	-950124	337.461
300.5000	-974997	337.392
300.4000	-1.0271E+006	337.338
300.3000	-1.03685E+006	337.26
300.2000	-1.02817E+006	337.187
300.1000	-969107	337.132
300.0000	-917619	337.069
299.9000	-875978	337.016
299.8000	-831448	336.965
299.7000	-852001	336.898
299.6000	-815368	336.84
299.5000	-725815	336.778
299.4000	-744262	336.726
299.3000	-765333	336.652
299.2000	-773560	336.597
299.1000	-721882	336.555
299.0000	-759909	336.486
298.9000	-729534	336.436
298.8000	-687486	336.402
298.7000	-732656	336.349
298.6000	-757418	336.304
298.5000	-779272	336.254
298.4000	-775378	336.195
298.3000	-800675	336.138
298.2000	-823831	336.077
298.1000	-874347	336.013
298.0000	-902831	335.956
297.9000	-942108	335.901
297.8000	-884542	335.833
297.7000	-947421	335.776
297.6000	-984140	335.732
297.5000	-1.02132E+006	335.667
297.4000	-1.04907E+006	335.624
297.3000	-984449	335.588
297.2000	-971994	335.526
297.1000	-1.00495E+006	335.48
297.0000	-1.1089E+006	335.426
296.9000	-1.04063E+006	335.359
296.8000	-961169	335.307
296.7000	-971116	335.259
296.6000	-945168	335.219
296.5000	-895680	335.171
296.4000	-810992	335.132
296.3000	-630618	335.104
296.2000	-513461	335.066
296.1000	-566600	335.026
296.0000	-607718	334.996
295.9000	-573061	334.952
295.8000	-534996	334.89
295.7000	-607867	334.844
295.6000	-677882	334.795
295.5000	-717659	334.729
295.4000	-759683	334.654
295.3000	-669399	334.611
295.2000	-614246	334.556
295.1000	-577657	334.488
295.0000	-622627	334.446
294.9000	-638889	334.395
294.8000	-642414	334.329
294.7000	-692488	334.287
294.6000	-737362	334.253
294.5000	-772289	334.201
294.4000	-763065	334.163
294.3000	-784652	334.135
294.2000	-809694	334.088
294.1000	-776451	334.051
294.0000	-762449	334.027
293.9000	-799493	333.979
293.8000	-795930	333.945
293.7000	-832549	333.918
293.6000	-912673	333.862
293.5000	-980984	333.797
293.4000	-1.09721E+006	333.76
293.3000	-1.11134E+006	333.711
293.2000	-1.1068E+006	333.654
293.1000	-1.07329E+006	333.628
293.0000	-1.09465E+006	333.58
292.9000	-1.07312E+006	333.53
292.8000	-1.03542E+006	333.508
292.7000	-925912	333.487
292.6000	-864948	333.451
292.5000	-827483	333.399
292.4000	-752277	333.371
292.3000	-707157	333.322
292.2000	-691003	333.27
292.1000	-670899	333.237
292.0000	-671995	333.189
291.9000	-752242	333.128
291.8000	-850229	333.074
291.7000	-783123	333.053
291.6000	-839006	333.004
291.5000	-951776	332.953
291.4000	-1.01759E+006	332.924
291.3000	-1.10275E+006	332.875
291.2000	-1.21433E+006	332.808
291.1000	-1.2671E+006	332.74
291.0000	-1.21502E+006	332.692
290.9000	-1.21015E+006	332.62
290.8000	-1.22648E+006	332.532
290.7000	-1.19117E+006	332.432
290.6000	-1.18304E+006	332.326
290.5000	-1.104E+006	332.197
290.4000	-981393	332.063
290.3000	-931454	331.946
290.2000	-877752	331.805
290.1000	-876239	331.65
290.0000	-898600	331.507
289.9000	-948659	331.405
289.8000	-952583	331.314
289.7000	-1.01527E+006	331.239
289.6000	-1.04146E+006	331.209
289.5000	-1.07637E+006	331.217
289.4000	-1.12051E+006	331.249
289.3000	-1.12827E+006	331.315
289.2000	-1.15597E+006	331.401
289.1000	-1.13525E+006	331.509
289.0000	-1.06791E+006	331.612
288.9000	-1.03208E+006	331.719
288.8000	-1.07857E+006	331.813
288.7000	-1.09521E+006	331.897
288.6000	-1.02709E+006	331.96
288.5000	-1.02235E+006	332.006
288.4000	-898167	332.039
288.3000	-810146	332.064
288.2000	-835854	332.064
288.1000	-850744	332.054
288.0000	-777067	332.035
287.9000	-671960	332.001
287.8000	-606045	331.98
287.7000	-587423	331.956
287.6000	-666240	331.929
287.5000	-744806	331.89
287.4000	-798345	331.868
287.3000	-738472	331.853
287.2000	-747128	331.834
287.1000	-786681	331.816
287.0000	-878526	331.773
286.9000	-942841	331.748
286.8000	-951809	331.735
286.7000	-982831	331.718
286.6000	-1.01695E+006	331.689
286.5000	-1.08559E+006	331.674
286.4000	-1.15009E+006	331.664
286.3000	-1.07949E+006	331.667
286.2000	-1.08111E+006	331.666
286.1000	-1.0405E+006	331.66
286.0000	-1.03886E+006	331.659
285.9000	-1.00497E+006	331.653
285.8000	-962146	331.653
285.7000	-1.0042E+006	331.634
285.6000	-1.02745E+006	331.611
285.5000	-1.16938E+006	331.603
285.4000	-1.25847E+006	331.597
285.3000	-1.27918E+006	331.598
285.2000	-1.3604E+006	331.571
285.1000	-1.3413E+006	331.555
285.0000	-1.34789E+006	331.561
284.9000	-1.28799E+006	331.553
284.8000	-1.2309E+006	331.554
284.7000	-1.12458E+006	331.538
284.6000	-1.02507E+006	331.523
284.5000	-965098	331.523
284.4000	-887871	331.53
284.3000	-832869	331.539
284.2000	-812506	331.517
284.1000	-775901	331.508
284.0000	-740809	331.486
283.9000	-736766	331.486
283.8000	-804635	331.49
283.7000	-823794	331.477
283.6000	-779505	331.466
283.5000	-764960	331.456
283.4000	-708765	331.456
283.3000	-687350	331.471
283.2000	-668029	331.491
283.1000	-688290	331.502
283.0000	-636925	331.496
282.9000	-614496	331.495
282.8000	-669655	331.49
282.7000	-698508	331.504
282.6000	-805801	331.514
282.5000	-831925	331.518
282.4000	-897704	331.51
282.3000	-947712	331.505
282.2000	-1.01348E+006	331.503
282.1000	-1.07404E+006	331.522
282.0000	-1.07666E+006	331.534
281.9000	-1.13838E+006	331.534
281.8000	-1.19581E+006	331.529
281.7000	-1.2429E+006	331.518
281.6000	-1.3005E+006	331.516
281.5000	-1.25358E+006	331.513
281.4000	-1.18535E+006	331.531
281.3000	-1.08412E+006	331.536
281.2000	-1.04677E+006	331.534
281.1000	-1.02339E+006	331.535
281.0000	-901519	331.537
280.9000	-842312	331.542
280.8000	-777611	331.541
280.7000	-753293	331.544
280.6000	-731156	331.553
280.5000	-752056	331.55
280.4000	-743775	331.556
280.3000	-731473	331.555
280.2000	-701339	331.553
280.1000	-696543	331.547
280.0000	-674849	331.543
279.9000	-647129	331.537
279.8000	-600364	331.518
279.7000	-515212	331.514
279.6000	-520457	331.503
279.5000	-555542	331.495
279.4000	-593739	331.489
279.3000	-634562	331.482
279.2000	-636438	331.481
279.1000	-612812	331.48
279.0000	-642234	331.479
278.9000	-775185	331.466
278.8000	-809792	331.473
278.7000	-710187	331.486
278.6000	-668514	331.501
278.5000	-664546	331.517
278.4000	-569050	331.529
278.3000	-575738	331.542
278.2000	-628981	331.553
278.1000	-655125	331.561
278.0000	-643078	331.557
277.9000	-733769	331.544
277.8000	-770920	331.534
277.7000	-724150	331.528
277.6000	-751785	331.545
277.5000	-815150	331.555
277.4000	-805265	331.573
277.3000	-756550	331.597
277.2000	-697551	331.621
277.1000	-654512	331.648
277.0000	-647390	331.674
276.9000	-643262	331.698
276.8000	-651288	331.704
276.7000	-668237	331.708
276.6000	-657896	331.715
276.5000	-575499	331.723
276.4000	-641682	331.729
276.3000	-682634	331.736
276.2000	-732150	331.742
276.1000	-785003	331.749
276.0000	-797040	331.775
275.9000	-734678	331.805
275.8000	-779537	331.824
275.7000	-937265	331.835
275.6000	-939677	331.851
275.5000	-875328	331.87
275.4000	-817625	331.89
275.3000	-798204	331.905
275.2000	-822554	331.905
275.1000	-893424	331.902
275.0000	-959349	331.907
274.9000	-941498	331.92
274.8000	-951014	331.935
274.7000	-989912	331.947
274.6000	-1.08344E+006	331.956
274.5000	-1.18232E+006	331.97
274.4000	-1.28348E+006	331.98
274.3000	-1.33097E+006	331.996
274.2000	-1.26713E+006	332.014
274.1000	-1.22318E+006	332.033
274.0000	-1.19964E+006	332.043
273.9000	-1.22411E+006	332.052
273.8000	-1.1836E+006	332.064
273.7000	-1.14036E+006	332.077
273.6000	-1.04378E+006	332.091
273.5000	-943874	332.106
273.4000	-914416	332.116
273.3000	-926324	332.127
273.2000	-914044	332.137
273.1000	-862204	332.153
273.0000	-865878	332.168
272.9000	-882835	332.184
272.8000	-898931	332.201
272.7000	-834850	332.221
272.6000	-881020	332.239
272.5000	-906998	332.255
272.4000	-896952	332.272
272.3000	-916898	332.294
272.2000	-943440	332.317
272.1000	-903888	332.335
272.0000	-847045	332.352
271.9000	-841020	332.372
271.8000	-825852	332.393
271.7000	-857409	332.415
271.6000	-904853	332.435
271.5000	-894542	332.454
271.4000	-853029	332.466
271.3000	-835100	332.48
271.2000	-885483	332.492
271.1000	-1.01496E+006	332.499
271.0000	-1.09831E+006	332.507
270.9000	-1.07286E+006	332.5
270.8000	-997852	332.497
270.7000	-1.00749E+006	332.496
270.6000	-953995	332.504
270.5000	-954085	332.505
270.4000	-942730	332.508
270.3000	-856630	332.51
270.2000	-773627	332.508
270.1000	-727145	332.51
270.0000	-788747	332.515
269.9000	-787925	332.522
269.8000	-859843	332.52
269.7000	-879509	332.519
269.6000	-926931	332.53
269.5000	-920146	332.549
269.4000	-956823	332.559
269.3000	-1.03602E+006	332.578
269.2000	-999504	332.605
269.1000	-923999	332.64
269.0000	-922872	332.675
268.9000	-971450	332.718
268.8000	-1.11546E+006	332.748
268.7000	-1.16709E+006	332.775
268.6000	-1.25536E+006	332.808
268.5000	-1.22329E+006	332.854
268.4000	-1.21905E+006	332.898
268.3000	-1.21444E+006	332.926
268.2000	-1.22339E+006	332.959
268.1000	-1.22117E+006	332.985
268.0000	-1.12068E+006	333.023
267.9000	-1.0453E+006	333.059
267.8000	-960936	333.108
267.7000	-869055	333.153
267.6000	-892676	333.202
267.5000	-1.00944E+006	333.252
267.4000	-1.07673E+006	333.288
267.3000	-1.05431E+006	333.332
267.2000	-1.03589E+006	333.369
267.1000	-982615	333.418
267.0000	-982515	333.465
266.9000	-1.01452E+006	333.515
266.8000	-985741	333.553
266.7000	-940406	333.579
266.6000	-877255	333.621
266.5000	-841290	333.663
266.4000	-766417	333.72
266.3000	-788742	333.772
266.2000	-829692	333.825
266.1000	-850417	333.873
266.0000	-907157	333.913
265.9000	-992619	333.967
265.8000	-1.01391E+006	334.023
265.7000	-1.03944E+006	334.08
265.6000	-1.04318E+006	334.136
265.5000	-1.04058E+006	334.19
265.4000	-1.08425E+006	334.227
265.3000	-1.14039E+006	334.259
265.2000	-1.16825E+006	334.302
265.1000	-1.12091E+006	334.347
265.0000	-1.16026E+006	334.396
264.9000	-1.08192E+006	334.46
264.8000	-1.02403E+006	334.507
264.7000	-1.02251E+006	334.551
264.6000	-946012	334.611
264.5000	-826136	334.687
264.4000	-780127	334.759
264.3000	-737888	334.817
264.2000	-649613	334.884
264.1000	-607128	334.951
264.0000	-598232	335.026
263.9000	-630517	335.109
263.8000	-593151	335.189
263.7000	-589431	335.257
263.6000	-544630	335.33
263.5000	-520219	335.42
263.4000	-496136	335.525
263.3000	-492597	335.602
263.2000	-562133	335.677
263.1000	-586135	335.755
263.0000	-623613	335.834
262.9000	-624013	335.908
262.8000	-653290	335.986
262.7000	-640068	336.059
262.6000	-528380	336.13
262.5000	-509144	336.215
262.4000	-567923	336.287
262.3000	-517227	336.355
262.2000	-430405	336.428
262.1000	-383246	336.507
262.0000	-423644	336.568
261.9000	-385719	336.641
261.8000	-427361	336.707
261.7000	-475001	336.756
261.6000	-481002	336.816
261.5000	-510789	336.886
261.4000	-598037	336.954
261.3000	-647530	337.017
261.2000	-571952	337.096
261.1000	-529652	337.176
261.0000	-587956	337.257
260.9000	-535317	337.334
260.8000	-520254	337.414
260.7000	-439569	337.498
260.6000	-338090	337.575
260.5000	-352613	337.659
260.4000	-379620	337.752
260.3000	-415168	337.845
260.2000	-396952	337.926
260.1000	-418954	338.014
260.0000	-409989	338.106
259.9000	-426577	338.185
259.8000	-468788	338.276
259.7000	-481128	338.369
259.6000	-492472	338.45
259.5000	-497374	338.535
259.4000	-598563	338.629
259.3000	-632727	338.715
259.2000	-666504	338.796
259.1000	-692523	338.889
259.0000	-767203	338.97
258.9000	-844176	339.05
258.8000	-857431	339.138
258.7000	-863898	339.209
258.6000	-787499	339.279
258.5000	-639609	339.359
258.4000	-646306	339.437
258.3000	-642264	339.519
258.2000	-567998	339.611
258.1000	-468966	339.697
258.0000	-421926	339.783
257.9000	-432856	339.876
257.8000	-549613	339.96
257.7000	-745105	340.047
257.6000	-841363	340.148
257.5000	-917618	340.247
257.4000	-1.00239E+006	340.355
257.3000	-1.01426E+006	340.461
257.2000	-1.01454E+006	340.56
257.1000	-995168	340.654
257.0000	-840948	340.75
256.9000	-628217	340.847
256.8000	-532635	340.927
256.7000	-411724	341.016
256.6000	-326770	341.098
256.5000	-283722	341.172
256.4000	-257263	341.257
256.3000	-221689	341.337
256.2000	-261406	341.424
256.1000	-389654	341.516
256.0000	-426797	341.599
255.9000	-389532	341.687
255.8000	-335240	341.765
255.7000	-414818	341.849
255.6000	-464960	341.937
255.5000	-589392	342.017
255.4000	-657369	342.109
255.3000	-583045	342.196
255.2000	-534058	342.292
255.1000	-508932	342.384
255.0000	-579094	342.481
254.9000	-519732	342.573
254.8000	-483298	342.664
254.7000	-432991	342.77
254.6000	-379794	342.871
254.5000	-413446	342.974
254.4000	-433837	343.077
254.3000	-476071	343.181
254.2000	-478892	343.267
254.1000	-435841	343.359
254.0000	-479187	343.442
253.9000	-453777	343.524
253.8000	-319190	343.604
253.7000	-219416	343.688
253.6000	-162523	343.757
253.5000	-143164	343.828
253.4000	-134246	343.891
253.3000	-226151	343.953
253.2000	-207996	344.021
253.1000	-227354	344.105
253.0000	-461123	344.183
252.9000	-613795	344.266
252.8000	-567505	344.351
252.7000	-506958	344.441
252.6000	-549924	344.539
252.5000	-457059	344.653
252.4000	-348775	344.751
252.3000	-314163	344.843
252.2000	-278217	344.925
252.1000	-295437	345.009
252.0000	-351812	345.087
251.9000	-469569	345.161
251.8000	-529108	345.242
251.7000	-570193	345.308
251.6000	-614180	345.393
251.5000	-620392	345.478
251.4000	-536219	345.572
251.3000	-467401	345.66
251.2000	-497654	345.748
251.1000	-545468	345.85
251.0000	-572102	345.947
250.9000	-526409	346.066
250.8000	-609711	346.182
250.7000	-714849	346.296
250.6000	-770041	346.399
250.5000	-838752	346.498
250.4000	-716932	346.608
250.3000	-715750	346.708
250.2000	-679394	346.82
250.1000	-631566	346.929
250.0000	-577605	347.022
249.9000	-527055	347.122
249.8000	-538816	347.216
249.7000	-488462	347.32
249.6000	-538836	347.416
249.5000	-530494	347.515
249.4000	-455658	347.617
249.3000	-481032	347.71
249.2000	-504730	347.808
249.1000	-513425	347.914
249.0000	-489385	348.018
248.9000	-448540	348.121
248.8000	-398842	348.239
248.7000	-399583	348.356
248.6000	-461540	348.465
248.5000	-492742	348.57
248.4000	-516642	348.668
248.3000	-448578	348.76
248.2000	-323732	348.861
248.1000	-260822	348.972
248.0000	-294876	349.063
247.9000	-280357	349.151
247.8000	-267747	349.232
247.7000	-302404	349.311
247.6000	-356602	349.404
247.5000	-461997	349.505
247.4000	-589417	349.6
247.3000	-734490	349.678
247.2000	-745709	349.768
247.1000	-711613	349.858
247.0000	-655855	349.945
246.9000	-676145	350.044
246.8000	-702924	350.138
246.7000	-727763	350.218
246.6000	-680298	350.3
246.5000	-596092	350.399
246.4000	-585409	350.488
246.3000	-665012	350.571
246.2000	-729656	350.668
246.1000	-623313	350.78
246.0000	-549823	350.889
245.9000	-511448	351.003
245.8000	-630287	351.12
245.7000	-744156	351.242
245.6000	-717686	351.377
245.5000	-670040	351.519
245.4000	-645957	351.659
245.3000	-599228	351.79
245.2000	-579497	351.926
245.1000	-545403	352.06
245.0000	-372653	352.187
244.9000	-269418	352.307
244.8000	-249099	352.419
244.7000	-211394	352.533
244.6000	-143566	352.649
244.5000	-96180.1	352.772
244.4000	-129916	352.885
244.3000	-64947.9	353
244.2000	-35853.2	353.121
244.1000	-30262.1	353.244
244.0000	-58682.9	353.365
243.9000	-137941	353.488
243.8000	-179972	353.613
243.7000	-236261	353.735
243.6000	-227462	353.851
243.5000	-229402	353.977
243.4000	-269835	354.119
243.3000	-304482	354.262
243.2000	-272184	354.402
243.1000	-195688	354.549
243.0000	-135101	354.698
242.9000	-167701	354.844
242.8000	-220223	354.988
242.7000	-313992	355.134
242.6000	-328868	355.274
242.5000	-281150	355.414
242.4000	-175477	355.566
242.3000	-125584	355.719
242.2000	-125516	355.868
242.1000	-28218.7	356.02
242.0000	78731.4	356.174
241.9000	130512	356.33
241.8000	77930.4	356.48
241.7000	49814.8	356.622
241.6000	79607.5	356.759
241.5000	51456.4	356.895
241.4000	-26143.5	357.033
241.3000	-98374.8	357.179
241.2000	-262183	357.327
241.1000	-336989	357.48
241.0000	-339180	357.638
240.9000	-214359	357.808
240.8000	-219953	357.986
240.7000	-169883	358.168
240.6000	22582.9	358.357
240.5000	64161.8	358.54
240.4000	108241	358.718
240.3000	163920	358.896
240.2000	237532	359.081
240.1000	137414	359.264
240.0000	78130	359.444
239.9000	30737.5	359.625
239.8000	-11437.8	359.804
239.7000	-66387.3	359.981
239.6000	-187682	360.164
239.5000	-175171	360.358
239.4000	-279883	360.55
239.3000	-226523	360.741
239.2000	-121399	360.934
239.1000	-205476	361.131
239.0000	-323030	361.337
238.9000	-372631	361.551
238.8000	-273112	361.771
238.7000	-263168	361.99
238.6000	-271338	362.202
238.5000	-325117	362.402
238.4000	-400837	362.603
238.3000	-510173	362.806
238.2000	-588982	363.003
238.1000	-659304	363.199
238.0000	-704570	363.396
237.9000	-683893	363.593
237.8000	-781628	363.787
237.7000	-767785	363.997
237.6000	-689639	364.219
237.5000	-624750	364.443
237.4000	-510567	364.669
237.3000	-453220	364.895
237.2000	-398886	365.123
237.1000	-342238	365.349
237.0000	-215834	365.572
236.9000	-182493	365.792
236.8000	-347324	366.012
236.7000	-481929	366.232
236.6000	-584067	366.443
236.5000	-635380	366.659
236.4000	-694593	366.872
236.3000	-829065	367.089
236.2000	-935551	367.314
236.1000	-872734	367.543
236.0000	-801176	367.775
235.9000	-715759	368.006
235.8000	-724373	368.242
235.7000	-711646	368.48
235.6000	-744137	368.713
235.5000	-757551	368.949
235.4000	-771779	369.193
235.3000	-776138	369.439
235.2000	-835131	369.691
235.1000	-776831	369.944
235.0000	-797168	370.194
234.9000	-734514	370.441
234.8000	-571790	370.692
234.7000	-547775	370.949
234.6000	-591164	371.188
234.5000	-646130	371.428
234.4000	-549193	371.673
234.3000	-519477	371.912
234.2000	-431093	372.161
234.1000	-404227	372.414
234.0000	-470354	372.663
233.9000	-445437	372.908
233.8000	-353788	373.158
233.7000	-322694	373.406
233.6000	-399602	373.654
233.5000	-581013	373.898
233.4000	-725166	374.133
233.3000	-705100	374.371
233.2000	-739960	374.617
233.1000	-775492	374.859
233.0000	-848948	375.109
232.9000	-823804	375.358
232.8000	-867991	375.613
232.7000	-931847	375.869
232.6000	-763256	376.131
232.5000	-677368	376.393
232.4000	-714417	376.646
232.3000	-596320	376.915
232.2000	-472219	377.178
232.1000	-420133	377.44
232.0000	-211177	377.703
231.9000	-24302.3	377.96
231.8000	61847.6	378.213
231.7000	107324	378.467
231.6000	273621	378.729
231.5000	195068	378.972
231.4000	76609.2	379.215
231.3000	-4816.79	379.454
231.2000	-207442	379.695
231.1000	-411252	379.935
231.0000	-558688	380.175
230.9000	-520612	380.428
230.8000	-527566	380.675
230.7000	-584204	380.935
230.6000	-592482	381.197
230.5000	-502042	381.468
230.4000	-376638	381.738
230.3000	-407719	382.009
230.2000	-323306	382.282
230.1000	-469893	382.553
230.0000	-691558	382.817
229.9000	-786252	383.074
229.8000	-813589	383.331
229.7000	-882673	383.575
229.6000	-1.07653E+006	383.815
229.5000	-1.09886E+006	384.051
229.4000	-1.00153E+006	384.281
229.3000	-1.02192E+006	384.499
229.2000	-1.07754E+006	384.712
229.1000	-959861	384.935
229.0000	-769305	385.164
228.9000	-714139	385.394
228.8000	-678060	385.626
228.7000	-386156	385.877
228.6000	-232852	386.132
228.5000	-202428	386.388
228.4000	4040.94	386.667
228.3000	20748	386.943
228.2000	-173147	387.21
228.1000	-298420	387.491
228.0000	-176493	387.777
227.9000	-269889	388.05
227.8000	-347327	388.319
227.7000	-320314	388.601
227.6000	-494981	388.87
227.5000	-537939	389.133
227.4000	-426782	389.401
227.3000	-286856	389.674
227.2000	-372573	389.934
227.1000	-452989	390.195
227.0000	-547137	390.454
226.9000	-539935	390.71
226.8000	-352469	390.97
226.7000	-254189	391.226
226.6000	-296093	391.477
226.5000	-270064	391.717
226.4000	-238349	391.951
226.3000	-117194	392.185
226.2000	-49261.8	392.425
226.1000	-103446	392.662
226.0000	-136883	392.894
225.9000	-61678.7	393.129
225.8000	65280.8	393.362
225.7000	18536.8	393.596
225.6000	69683	393.836
225.5000	73178.5	394.076
225.4000	63153.5	394.315
225.3000	208441	394.561
225.2000	162809	394.797
225.1000	177964	395.038
225.0000	92925.9	395.28
224.9000	25943.7	395.518
224.8000	-2801.36	395.756
224.7000	-53212.6	395.99
224.6000	-138872	396.219
224.5000	-263479	396.444
224.4000	-392641	396.667
224.3000	-581179	396.888
224.2000	-633526	397.108
224.1000	-583223	397.333
224.0000	-651203	397.556
223.9000	-588331	397.788
223.8000	-536324	398.018
223.7000	-587659	398.249
223.6000	-409301	398.484
223.5000	-280895	398.716
223.4000	-219620	398.941
223.3000	-308849	399.154
223.2000	-237217	399.371
223.1000	-182199	399.588
223.0000	-218647	399.804
222.9000	-178064	400.015
222.8000	-161209	400.223
222.7000	-99127.6	400.435
222.6000	-23511.4	400.649
222.5000	18098.1	400.865
222.4000	-70963.6	401.071
222.3000	-258337	401.276
222.2000	-408583	401.476
222.1000	-394512	401.681
222.0000	-309663	401.887
221.9000	-380769	402.08
221.8000	-410957	402.274
221.7000	-513546	402.473
221.6000	-497758	402.673
221.5000	-357755	402.878
221.4000	-132299	403.08
221.3000	-176955	403.278
221.2000	-373108	403.475
221.1000	-549362	403.669
221.0000	-559843	403.866
220.9000	-416138	404.059
220.8000	-452586	404.256
220.7000	-356391	404.451
220.6000	-243282	404.643
220.5000	-135255	404.843
220.4000	-31885.9	405.029
220.3000	199674	405.226
220.2000	129412	405.422
220.1000	66632.5	405.613
220.0000	163931	405.806
219.9000	130385	405.995
219.8000	-61994	406.176
219.7000	-129875	406.354
219.6000	-169827	406.533
219.5000	-49578.4	406.715
219.4000	177662	406.902
219.3000	282946	407.085
219.2000	317257	407.264
219.1000	116957	407.435
219.0000	37300	407.613
218.9000	4899.24	407.789
218.8000	9693.05	407.971
218.7000	-62699.7	408.148
218.6000	-282710	408.319
218.5000	-383202	408.492
218.4000	-523347	408.671
218.3000	-451434	408.847
218.2000	-346638	409.026
218.1000	-312023	409.201
218.0000	-302031	409.379
217.9000	-293563	409.557
217.8000	-222739	409.727
217.7000	-283671	409.897
217.6000	-441297	410.06
217.5000	-488991	410.236
217.4000	-422903	410.408
217.3000	-427789	410.576
217.2000	-449316	410.746
217.1000	-326589	410.916
217.0000	-529637	411.081
216.9000	-606260	411.247
216.8000	-577093	411.416
216.7000	-548641	411.577
216.6000	-571971	411.744
216.5000	-580546	411.913
216.4000	-481359	412.077
216.3000	-759238	412.228
216.2000	-787466	412.39
216.1000	-552033	412.563
216.0000	-420732	412.729
215.9000	-387046	412.892
215.8000	-390737	413.05
215.7000	-582162	413.204
215.6000	-817996	413.366
215.5000	-1.00407E+006	413.529
215.4000	-978607	413.696
215.3000	-1.08855E+006	413.852
215.2000	-1.24518E+006	414.008
215.1000	-1.40913E+006	414.178
215.0000	-1.6027E+006	414.345
214.9000	-1.62534E+006	414.517
214.8000	-1.40627E+006	414.684
214.7000	-1.07802E+006	414.862
214.6000	-746880	415.037
214.5000	-615962	415.211
214.4000	-651826	415.38
214.3000	-541435	415.546
214.2000	-381156	415.711
214.1000	-173109	415.875
214.0000	-52281.8	416.041
213.9000	-93789.5	416.204
213.8000	-143045	416.365
213.7000	-294022	416.529
213.6000	-29387.3	416.704
213.5000	294409	416.881
213.4000	555927	417.06
213.3000	571958	417.235
213.2000	505381	417.41
213.1000	631232	417.59
213.0000	558512	417.77
212.9000	605813	417.951
212.8000	363492	418.116
212.7000	110551	418.285
212.6000	-113993	418.455
212.5000	-243645	418.629
212.4000	-379344	418.803
212.3000	-640035	418.972
212.2000	-827390	419.141
212.1000	-1.02407E+006	419.314
212.0000	-1.17795E+006	419.498
211.9000	-1.18834E+006	419.684
211.8000	-1.30071E+006	419.867
211.7000	-1.26247E+006	420.051
211.6000	-1.23502E+006	420.239
211.5000	-1.28964E+006	420.425
211.4000	-1.32378E+006	420.614
211.3000	-1.26929E+006	420.808
211.2000	-1.09293E+006	420.997
211.1000	-852539	421.192
211.0000	-502757	421.395
210.9000	-246463	421.596
210.8000	-308974	421.79
210.7000	-141389	421.997
210.6000	133753	422.203
210.5000	272690	422.408
210.4000	325208	422.616
210.3000	157171	422.823
210.2000	-208101	423.017
210.1000	-603473	423.22
210.0000	-773972	423.424
209.9000	-744778	423.634
209.8000	-713169	423.84
209.7000	-567661	424.055
209.6000	-395154	424.265
209.5000	-164968	424.482
209.4000	15251.1	424.697
209.3000	255244	424.912
209.2000	544207	425.136
209.1000	823486	425.358
209.0000	831687	425.572
208.9000	793017	425.788
208.8000	684600	426.001
208.7000	698630	426.217
208.6000	668007	426.437
208.5000	744947	426.663
208.4000	597309	426.88
208.3000	286891	427.098
208.2000	137033	427.322
208.1000	-31551.5	427.546
208.0000	-57455.8	427.774
207.9000	-269796	428
207.8000	-364342	428.23
207.7000	-425420	428.459
207.6000	-305259	428.695
207.5000	-26306.3	428.932
207.4000	220638	429.165
207.3000	443183	429.397
207.2000	454791	429.624
207.1000	396939	429.849
207.0000	253567	430.071
206.9000	405537	430.302
206.8000	504841	430.53
206.7000	458024	430.753
206.6000	437285	430.979
206.5000	375969	431.207
206.4000	448699	431.441
206.3000	698471	431.681
206.2000	1.04153E+006	431.919
206.1000	879973	432.142
206.0000	704370	432.363
205.9000	576641	432.588
205.8000	314836	432.811
205.7000	74620.5	433.036
205.6000	-70050.7	433.264
205.5000	-454985	433.488
205.4000	-911923	433.708
205.3000	-952332	433.943
205.2000	-991418	434.185
205.1000	-1.02729E+006	434.428
205.0000	-1.04519E+006	434.672
204.9000	-811727	434.923
204.8000	-641978	435.172
204.7000	-473000	435.426
204.6000	-145980	435.686
204.5000	-11231.8	435.943
204.4000	125011	436.197
204.3000	285549	436.454
204.2000	374465	436.711
204.1000	173248	436.958
204.0000	129396	437.213
203.9000	94149.2	437.464
203.8000	-94321	437.716
203.7000	-328701	437.966
203.6000	-475865	438.223
203.5000	-854378	438.475
203.4000	-774357	438.741
203.3000	-442880	439.016
203.2000	-85863.8	439.297
203.1000	-19957.3	439.576
203.0000	152317	439.858
202.9000	422943	440.146
202.8000	469711	440.425
202.7000	759066	440.718
202.6000	643158	440.997
202.5000	500655	441.275
202.4000	467599	441.554
202.3000	332809	441.832
202.2000	233711	442.111
202.1000	344916	442.396
202.0000	336410	442.684
201.9000	76516.4	442.972
201.8000	5706.69	443.268
201.7000	88289.8	443.575
201.6000	-98518.5	443.881
201.5000	-339129	444.189
201.4000	-342528	444.505
201.3000	-489676	444.822
201.2000	-540428	445.147
201.1000	-402254	445.477
201.0000	-254486	445.808
200.9000	-186264	446.137
200.8000	-100230	446.473
200.7000	19266.7	446.815
200.6000	158480	447.164
200.5000	226314	447.519
200.4000	127778	447.875
200.3000	81420.8	448.24
200.2000	161231	448.609
200.1000	196691	448.977
200.0000	58043.1	449.34
199.9000	-149358	449.698
199.8000	-536865	450.045
199.7000	-659495	450.385
199.6000	-470121	450.726
199.5000	-288961	451.063
199.4000	-369426	451.394
199.3000	-495971	451.724
199.2000	-624868	452.059
199.1000	-429001	452.406
199.0000	-293414	452.756
198.9000	-161945	453.12
198.8000	-119226	453.492
198.7000	-57260	453.878
198.6000	-70334.2	454.272
198.5000	61814.5	454.68
198.4000	172817	455.096
198.3000	33000.8	455.509
198.2000	-29969.6	455.946
198.1000	197512	456.408
198.0000	62473.2	456.884
197.9000	-200512	457.372
197.8000	-541407	457.864
197.7000	-697787	458.374
197.6000	-849051	458.883
197.5000	-767543	459.4
197.4000	-577843	459.9
197.3000	-602094	460.367
197.2000	-513181	460.794
197.1000	-289590	461.183
197.0000	-89143.2	461.548
196.9000	25210	461.888
196.8000	194974	462.218
196.7000	376689	462.551
196.6000	325242	462.888
196.5000	294350	463.257
196.4000	271269	463.667
196.3000	347294	464.124
196.2000	405243	464.629
196.1000	322988	465.175
196.0000	351677	465.777
195.9000	160137	466.441
195.8000	312753	467.197
195.7000	249788	468.044
195.6000	38953	468.982
195.5000	-64743.1	470.016
195.4000	-56883.6	471.117
195.3000	316162	472.262
195.2000	357965	473.4
195.1000	61879.4	474.491
195.0000	-41120	475.48
194.9000	67748.9	476.314
194.8000	393736	476.96
194.7000	366882	477.408
194.6000	48520.3	477.7
194.5000	-436913	477.87
194.4000	-907831	477.968
194.3000	-658074	478.049
194.2000	-265200	478.171
194.1000	-429251	478.378
194.0000	-636418	478.733
193.9000	-756180	479.275
193.8000	-789422	480.021
193.7000	-430645	481.009
193.6000	-49284.7	482.249
193.5000	37320.4	483.777
193.4000	-207768	485.629
193.3000	-223358	487.796
193.2000	-47636.8	490.226
193.1000	-67201.1	492.829
193.0000	-126653	495.512
192.9000	-35245.4	498.145
192.8000	-29510.6	500.596
192.7000	35686.4	502.68
192.6000	319125	504.224
192.5000	187567	505.159
192.4000	-124.714	505.533
192.3000	-45570.5	505.44
192.2000	91124.1	504.991
192.1000	251859	504.309
192.0000	198248	503.533
191.9000	-6507.97	502.851
191.8000	105274	502.492
191.7000	69985.6	502.572
191.6000	149795	503.155
191.5000	-187009	504.229
191.4000	-414135	505.813
191.3000	-547508	507.951
191.2000	-500193	510.657
191.1000	-37160.3	513.899
191.0000	220168	517.555
190.9000	158011	521.468
190.8000	-101739	525.48
190.7000	97640.9	529.441
190.6000	89417.7	533.128
190.5000	-195778	536.295
190.4000	-622667	538.702
190.3000	-1.16858E+006	540.247
190.2000	-1.46203E+006	540.973
190.1000	-1.06418E+006	541.031
190.0000	-385580	540.604

##### Extended Information
[Comments]
Sample name	Erg_0.8uM
Comment
User
Division
Company	CSIR-IMTECH

[Detailed Information]
Creation date	4/9/2024 1:32 PM

Data array type	Linear data array * 2
Horizontal axis	Wavelength [nm]
Vertical axis(1)	Mol. Ellip.
Vertical axis(2)	HT [V]
Start	350 nm
End	190 nm
Data interval	0.1 nm
Data points	1601    

[Measurement Information]
Instrument Name	JASCO CD
Model Name	J-815
Serial No.	B063061168

Accessory	PTC-423S
Accessory S/N	C013945-01
  Temperature	37.48 C
  Control Sonsor	Cell
  Monitor Sensor	Cell
  Start Mode	Start immediately
  Cell Length	10 mm

Measurement date	4/9/2024 1:31 PM

Photometric Mode	CD, HT
Measure Range	350 - 190 nm
Data pitch	0.1 nm
Sensitivity	Standard
D.I.T.	1 sec
Bandwidth	1.00 nm
Start Mode	Immediately
Scanning Speed	50 nm/min
Baseline Correction	None
Shutter Control	Auto
CD Detector	PMT
PMT Voltage	Auto
Accumulations	3
Concentration	0.8 umol/L

